Messwertprotokoll Pulloutmessung
Allgemeine Protokolldaten
Versuchsnummer:	05
Projektnummer:	20_SFB_Transregio280_Toni
Experimentator:	Rothe
Matrixmat.:	C3B2
Fasermat.:	CF1 (ToTe STS40 E23)+Filco1,160'C,45wt%, 1xDip
Kommentar:	BMK D5-1 3g, VP-LIESENS-877 0.02g, BCS 1g, H2O 0.9g
Kommentar:	1000µm, 22.03.2022 eingebettet, 14d Exi+Wasser
Messdatum:	Tue 05/Apr/2022
Startzeit:	09:58:31
Endzeit:     	     	10:23:21
Versuchsparameter
Messplatz:	PullOut II
Geschw. v1 [µm/s]:	1
Geschw. v2 [µm/s]:	1
Abtastrate [s]:     	0.16
Bearbeitungsstand:	Daten ausgewertet NP-kompensiert  
Ergebnisgrößen
Faserdurchm. [µm]:	7.2
Auszug Fmax [µm]:	21.509
Fmax [N]:		0.177
Auszug Fmin [µm]:	78.538
Fmin [N]:		0.106
Auszug Fknick [µm]:	10.89
Fknick [N]:		0.158
Max.-auszug [µm]:	954.802
Fabbruch [N]:		0
Tau d [mN/mm²]:		8.199999999999999
Tau f [mN/mm²]:		4.911
E-Modul [N/µm]:		0.012
Wdehnung [mNmm]:	2.895
Wauszug [mNmm]:		49.326
Wgesamt [mNmm]:		52.221
Messwerte
Dauer	Weg	Kraft	
s	µm	N
Bearbeitungsstand:	Daten ausgewertet offsetkompensiert  
Ergebnisgrößen
Faserdurchm. [µm]:	0
0.42	-0.6	-0.002
0.57	-0.55	-0.002
0.73	-0.48	-0.002
0.9	-0.42	-0.002
1.05	-0.341	-0.003
1.22	-0.317	0.001
1.37	-0.221	-0.003
1.54	-0.16	-0.002
1.7	-0.09	-0.002
1.87	0	-0.002
2.03	0.301	0.009
2.19	0.394	0.012
2.35	0.479	0.017
2.51	0.575	0.023
2.67	0.728	0.026
2.83	0.822	0.03
2.99	0.936	0.034
3.15	1.08	0.038
3.31	1.253	0.041
3.48	1.357	0.045
3.64	1.48	0.048
3.8	1.623	0.051
3.96	1.747	0.055
4.13	1.901	0.059
4.29	2.034	0.062
4.46	2.138	0.066
4.62	2.332	0.07
4.78	2.504	0.072
4.93	2.606	0.074
5.09	2.758	0.076
5.25	2.841	0.079
5.41	3.004	0.082
5.57	3.146	0.084
5.74	3.258	0.086
5.9	3.42	0.088
6.07	3.514	0.092
6.22	3.726	0.094
6.38	3.847	0.095
6.55	4.019	0.097
6.71	4.101	0.099
6.87	4.314	0.102
7.03	4.435	0.103
7.19	4.617	0.105
7.36	4.727	0.105
7.52	4.89	0.108
7.69	5.041	0.109
7.85	5.212	0.11
8.01	5.274	0.112
8.17	5.427	0.115
8.34	5.627	0.115
8.5	5.828	0.116
8.67	5.91	0.118
8.83	6.052	0.12
9	6.274	0.122
9.16	6.463	0.121
9.33	6.574	0.122
9.49	6.705	0.123
9.66	6.868	0.126
9.82	7.059	0.127
9.98	7.151	0.129
10.15	7.331	0.129
10.31	7.453	0.131
10.48	7.654	0.132
10.63	7.745	0.133
10.79	7.897	0.135
10.95	8.027	0.135
11.11	8.21	0.138
11.27	8.37	0.138
11.43	8.531	0.139
11.6	8.644	0.142
11.76	8.894	0.142
11.92	9.015	0.143
12.07	9.156	0.144
12.23	9.316	0.144
12.4	9.426	0.144
12.56	9.549	0.147
12.72	9.72	0.148
12.88	9.851	0.149
13.04	9.973	0.151
13.21	10.134	0.152
13.36	10.335	0.153
13.52	10.475	0.153
13.68	10.577	0.155
13.85	10.737	0.155
14.01	10.89	0.158
14.17	11.08	0.158
14.34	11.21	0.158
14.5	11.38	0.158
14.67	11.51	0.158
14.83	11.73	0.158
14.99	11.879	0.157
15.14	11.999	0.157
15.31	12.169	0.157
15.47	12.322	0.16
15.64	12.521	0.159
15.8	12.662	0.16
15.97	12.811	0.159
16.14	12.993	0.161
16.3	13.173	0.161
16.46	13.333	0.161
16.63	13.443	0.161
16.79	13.564	0.162
16.95	13.785	0.163
17.11	13.945	0.163
17.28	14.084	0.162
17.44	14.216	0.164
17.61	14.447	0.165
17.77	14.616	0.164
17.93	14.716	0.164
18.1	14.827	0.165
18.26	14.958	0.166
18.43	15.189	0.167
18.59	15.377	0.165
18.76	15.526	0.164
18.92	15.721	0.169
19.08	15.95	0.168
19.24	16.08	0.168
19.41	16.27	0.168
19.57	16.361	0.169
19.74	16.581	0.169
19.9	16.732	0.17
20.06	16.881	0.169
20.22	17.023	0.171
20.38	17.193	0.171
20.54	17.353	0.171
20.71	17.513	0.171
20.87	17.693	0.171
21.03	17.813	0.171
21.19	17.984	0.172
21.36	18.174	0.172
21.53	18.333	0.171
21.69	18.473	0.171
21.86	18.624	0.172
22.01	18.794	0.172
22.18	18.934	0.172
22.34	19.075	0.173
22.51	19.254	0.172
22.67	19.435	0.173
22.83	19.604	0.172
23	19.735	0.173
23.16	19.886	0.174
23.33	20.136	0.174
23.49	20.305	0.173
23.66	20.444	0.172
23.82	20.593	0.171
23.99	20.725	0.173
24.15	20.925	0.173
24.31	21.055	0.173
24.48	21.195	0.173
24.64	21.345	0.173
24.81	21.509	0.177
24.97	21.696	0.174
25.12	21.884	0.172
25.28	22.013	0.171
25.44	22.125	0.173
25.61	22.326	0.174
25.78	22.544	0.172
25.94	22.643	0.171
26.11	22.875	0.173
26.27	23.065	0.173
26.44	23.233	0.171
26.6	23.353	0.171
26.77	23.503	0.171
26.93	23.674	0.172
27.1	23.883	0.171
27.27	24.002	0.17
27.43	24.183	0.171
27.6	24.334	0.172
27.76	24.551	0.169
27.92	24.672	0.17
28.08	24.871	0.169
28.25	24.993	0.171
28.42	25.222	0.17
28.58	25.391	0.169
28.75	25.521	0.169
28.91	25.69	0.168
29.08	25.89	0.168
29.24	26.05	0.168
29.41	26.199	0.167
29.57	26.379	0.167
29.74	26.559	0.167
29.9	26.719	0.167
30.06	26.888	0.166
30.21	27.008	0.166
30.37	27.198	0.166
30.53	27.368	0.166
30.69	27.538	0.166
30.86	27.698	0.166
31.02	27.866	0.164
31.18	27.996	0.164
31.34	28.186	0.164
31.51	28.336	0.164
31.67	28.476	0.164
31.84	28.635	0.163
31.99	28.876	0.164
32.15	29.005	0.163
32.32	29.135	0.163
32.48	29.284	0.162
32.65	29.485	0.163
32.81	29.674	0.162
32.97	29.844	0.162
33.13	29.973	0.161
33.29	30.224	0.162
33.46	30.383	0.161
33.62	30.582	0.16
33.79	30.701	0.159
33.94	30.853	0.161
34.1	31.032	0.16
34.26	31.192	0.16
34.42	31.321	0.159
34.59	31.471	0.159
34.75	31.642	0.16
34.91	31.822	0.16
35.07	31.971	0.159
35.23	32.141	0.159
35.4	32.311	0.159
35.56	32.52	0.158
35.72	32.65	0.158
35.87	32.789	0.157
36.03	32.929	0.157
36.2	33.13	0.158
36.36	33.289	0.157
36.53	33.448	0.156
36.69	33.579	0.157
36.85	33.749	0.157
37.01	33.929	0.157
37.16	34.088	0.156
37.33	34.238	0.156
37.49	34.378	0.156
37.66	34.628	0.156
37.82	34.787	0.155
37.98	34.916	0.154
38.14	35.086	0.154
38.31	35.216	0.154
38.47	35.406	0.154
38.63	35.556	0.154
38.79	35.696	0.154
38.95	35.846	0.154
39.11	36.056	0.154
39.26	36.195	0.153
39.43	36.345	0.153
39.6	36.524	0.152
39.76	36.665	0.153
39.92	36.844	0.152
40.08	37.003	0.151
40.24	37.133	0.151
40.41	37.295	0.153
40.56	37.545	0.153
40.72	37.703	0.151
40.89	37.852	0.15
41.05	37.971	0.149
41.22	38.113	0.151
41.39	38.352	0.15
41.55	38.502	0.15
41.71	38.631	0.149
41.88	38.792	0.15
42.04	39.001	0.149
42.2	39.161	0.149
42.36	39.311	0.149
42.51	39.449	0.147
42.68	39.605	0.153
42.85	39.811	0.149
43	39.989	0.147
43.16	40.099	0.147
43.32	40.27	0.148
43.49	40.45	0.148
43.66	40.648	0.146
43.82	40.758	0.146
43.98	40.938	0.146
44.14	41.09	0.148
44.31	41.338	0.146
44.47	41.447	0.145
44.64	41.608	0.146
44.8	41.839	0.147
44.96	42.017	0.145
45.11	42.157	0.145
45.28	42.346	0.144
45.44	42.467	0.145
45.61	42.656	0.144
45.77	42.796	0.144
45.92	42.926	0.144
46.09	43.106	0.144
46.25	43.325	0.143
46.42	43.435	0.143
46.58	43.615	0.143
46.75	43.794	0.142
46.91	43.905	0.143
47.08	44.095	0.143
47.24	44.255	0.143
47.41	44.405	0.143
47.56	44.635	0.143
47.72	44.843	0.141
47.89	44.983	0.141
48.04	45.113	0.141
48.21	45.273	0.141
48.38	45.443	0.141
48.54	45.613	0.141
48.71	45.762	0.14
48.86	45.893	0.141
49.02	46.042	0.14
49.19	46.243	0.141
49.34	46.402	0.14
49.51	46.533	0.141
49.66	46.682	0.14
49.83	46.842	0.14
49.99	47.032	0.14
50.15	47.172	0.14
50.32	47.341	0.139
50.48	47.471	0.139
50.65	47.702	0.14
50.8	47.812	0.14
50.96	48.01	0.138
51.13	48.213	0.131
51.29	48.396	0.134
51.46	48.492	0.14
51.62	48.69	0.138
51.78	48.811	0.139
51.95	49.011	0.139
52.12	49.221	0.139
52.28	49.379	0.137
52.44	49.509	0.137
52.61	49.629	0.137
52.76	49.799	0.137
52.93	49.999	0.137
53.09	50.109	0.137
53.25	50.27	0.138
53.42	50.451	0.139
53.58	50.669	0.137
53.75	50.798	0.136
53.91	50.988	0.136
54.07	51.119	0.137
54.22	51.328	0.136
54.38	51.448	0.136
54.55	51.598	0.136
54.71	51.829	0.137
54.87	52.008	0.136
55.02	52.158	0.136
55.19	52.298	0.136
55.35	52.467	0.135
55.52	52.648	0.136
55.68	52.818	0.136
55.85	52.967	0.135
56.01	53.097	0.135
56.16	53.267	0.135
56.33	53.468	0.136
56.49	53.627	0.135
56.66	53.757	0.135
56.82	53.966	0.134
56.98	54.098	0.136
57.15	54.325	0.133
57.31	54.472	0.13
57.47	54.636	0.134
57.64	54.746	0.134
57.8	54.956	0.134
57.96	55.096	0.134
58.12	55.266	0.134
58.29	55.426	0.134
58.45	55.626	0.134
58.62	55.795	0.133
58.78	55.945	0.133
58.95	56.085	0.133
59.11	56.316	0.134
59.27	56.485	0.133
59.44	56.643	0.131
59.6	56.803	0.131
59.77	56.965	0.133
59.93	57.144	0.132
60.08	57.293	0.131
60.25	57.385	0.133
60.4	57.544	0.132
60.56	57.764	0.132
60.71	57.933	0.131
60.87	58.063	0.131
61.03	58.232	0.13
61.19	58.382	0.13
61.36	58.583	0.131
61.53	58.732	0.13
61.69	58.863	0.131
61.85	59.082	0.13
62.01	59.281	0.129
62.17	59.411	0.129
62.33	59.561	0.129
62.5	59.721	0.129
62.67	59.931	0.129
62.83	60.071	0.129
62.99	60.22	0.128
63.14	60.321	0.129
63.3	60.501	0.129
63.47	60.681	0.129
63.63	60.86	0.128
63.8	61	0.128
63.96	61.189	0.127
64.13	61.34	0.128
64.29	61.539	0.127
64.45	61.679	0.127
64.61	61.838	0.126
64.78	61.979	0.127
64.94	62.189	0.127
65.1	62.328	0.126
65.27	62.449	0.127
65.43	62.618	0.126
65.6	62.779	0.127
65.76	62.969	0.127
65.92	63.118	0.126
66.08	63.287	0.125
66.25	63.449	0.127
66.41	63.677	0.125
66.57	63.797	0.125
66.74	63.937	0.125
66.9	64.066	0.124
67.06	64.258	0.126
67.22	64.437	0.125
67.39	64.596	0.124
67.55	64.736	0.124
67.72	64.907	0.125
67.89	65.086	0.124
68.04	65.266	0.124
68.21	65.445	0.123
68.37	65.526	0.124
68.54	65.785	0.123
68.7	65.965	0.123
68.87	66.084	0.122
69.03	66.296	0.124
69.19	66.495	0.123
69.35	66.673	0.121
69.52	66.793	0.121
69.68	66.923	0.121
69.85	67.114	0.122
70.01	67.324	0.122
70.16	67.452	0.12
70.33	67.582	0.12
70.49	67.744	0.122
70.66	68.002	0.12
70.82	68.132	0.12
70.98	68.272	0.12
71.15	68.422	0.12
71.31	68.671	0.119
71.48	68.821	0.119
71.64	68.96	0.118
71.81	69.101	0.119
71.97	69.252	0.12
72.13	69.45	0.118
72.29	69.59	0.118
72.44	69.712	0.12
72.61	69.93	0.118
72.78	70.081	0.119
72.94	70.27	0.118
73.11	70.42	0.118
73.27	70.589	0.117
73.43	70.809	0.117
73.6	70.959	0.117
73.76	71.137	0.115
73.93	71.278	0.116
74.09	71.361	0.119
74.26	71.588	0.116
74.41	71.737	0.115
74.58	71.868	0.116
74.74	72.008	0.116
74.9	72.247	0.115
75.06	72.416	0.114
75.23	72.537	0.115
75.39	72.715	0.113
75.56	72.876	0.114
75.72	73.075	0.113
75.89	73.216	0.114
76.04	73.366	0.114
76.21	73.596	0.114
76.37	73.784	0.112
76.54	73.944	0.112
76.7	74.114	0.112
76.86	74.194	0.112
77.02	74.394	0.112
77.18	74.564	0.112
77.35	74.713	0.111
77.51	74.833	0.111
77.68	74.994	0.112
77.84	75.184	0.112
78	75.382	0.11
78.17	75.482	0.11
78.33	75.622	0.11
78.5	75.813	0.111
78.66	76.042	0.11
78.83	76.181	0.109
78.99	76.341	0.109
79.15	76.512	0.11
79.32	76.701	0.109
79.48	76.831	0.109
79.64	76.971	0.109
79.81	77.181	0.109
79.96	77.39	0.108
80.12	77.51	0.108
80.29	77.66	0.108
80.45	77.819	0.107
80.62	78.06	0.108
80.78	78.219	0.107
80.94	78.369	0.107
81.1	78.538	0.106
81.25	78.719	0.107
81.41	78.858	0.106
81.58	78.998	0.106
81.74	79.119	0.107
81.91	79.309	0.107
82.07	79.459	0.107
82.23	79.638	0.106
82.39	79.788	0.106
82.55	79.978	0.106
82.72	80.118	0.106
82.88	80.328	0.106
83.04	80.487	0.105
83.2	80.638	0.106
83.37	80.839	0.107
83.53	81.057	0.105
83.7	81.197	0.105
83.86	81.366	0.104
84.02	81.487	0.105
84.19	81.697	0.105
84.35	81.857	0.105
84.52	82.036	0.104
84.68	82.167	0.105
84.85	82.387	0.105
85	82.527	0.105
85.17	82.676	0.104
85.34	82.836	0.104
85.5	83.017	0.105
85.67	83.168	0.106
85.83	83.366	0.104
86	83.476	0.104
86.16	83.597	0.105
86.33	83.846	0.104
86.49	84.036	0.104
86.66	84.156	0.104
86.82	84.346	0.104
86.98	84.497	0.105
87.14	84.686	0.104
87.31	84.826	0.104
87.47	84.976	0.104
87.64	85.167	0.105
87.8	85.366	0.104
87.97	85.516	0.104
88.14	85.646	0.104
88.3	85.786	0.104
88.47	85.996	0.104
88.63	86.146	0.104
88.79	86.297	0.105
88.95	86.466	0.104
89.11	86.666	0.104
89.27	86.786	0.104
89.44	86.946	0.104
89.6	87.126	0.104
89.76	87.266	0.104
89.93	87.426	0.104
90.09	87.576	0.104
90.25	87.706	0.104
90.42	87.847	0.105
90.58	88.057	0.105
90.75	88.236	0.104
90.91	88.376	0.104
91.08	88.536	0.104
91.24	88.677	0.105
91.41	88.907	0.105
91.57	89.036	0.104
91.74	89.186	0.104
91.9	89.326	0.104
92.06	89.556	0.104
92.22	89.736	0.104
92.38	89.875	0.103
92.55	90.006	0.104
92.71	90.207	0.105
92.88	90.406	0.104
93.03	90.536	0.104
93.2	90.666	0.104
93.36	90.836	0.104
93.53	91.046	0.104
93.69	91.186	0.104
93.86	91.325	0.103
94.01	91.477	0.105
94.18	91.696	0.104
94.34	91.886	0.104
94.51	92.015	0.103
94.67	92.156	0.104
94.83	92.375	0.103
95	92.566	0.104
95.16	92.705	0.103
95.33	92.894	0.102
95.49	93.006	0.104
95.66	93.216	0.104
95.82	93.375	0.103
95.99	93.516	0.104
96.15	93.655	0.103
96.32	93.876	0.104
96.48	94.006	0.104
96.65	94.166	0.104
96.81	94.335	0.103
96.97	94.536	0.104
97.14	94.715	0.103
97.3	94.865	0.103
97.47	95.006	0.104
97.63	95.236	0.104
97.8	95.395	0.103
97.95	95.535	0.103
98.12	95.705	0.103
98.28	95.817	0.105
98.44	95.975	0.103
98.61	96.136	0.104
98.77	96.306	0.104
98.93	96.476	0.104
99.08	96.616	0.104
99.25	96.816	0.104
99.41	96.985	0.103
99.57	97.155	0.103
99.74	97.295	0.103
99.89	97.476	0.104
100.05	97.645	0.103
100.22	97.774	0.102
100.38	97.924	0.102
100.55	98.066	0.104
100.71	98.275	0.103
100.87	98.405	0.103
101.03	98.535	0.103
101.19	98.715	0.103
101.35	98.915	0.103
101.5	99.055	0.103
101.67	99.244	0.102
101.83	99.374	0.102
101.99	99.575	0.103
102.15	99.754	0.102
102.31	99.933	0.101
102.48	100.073	0.101
102.64	100.163	0.101
102.81	100.343	0.101
102.97	100.464	0.102
103.14	100.613	0.101
103.3	100.774	0.102
103.45	100.894	0.102
103.62	101.114	0.102
103.78	101.293	0.101
103.95	101.463	0.101
104.1	101.583	0.101
104.27	101.784	0.102
104.43	101.982	0.1
104.6	102.102	0.1
104.77	102.343	0.101
104.92	102.562	0.1
105.09	102.681	0.099
105.25	102.802	0.1
105.42	102.952	0.1
105.58	103.212	0.1
105.75	103.321	0.099
105.9	103.442	0.1
106.06	103.602	0.1
106.22	103.763	0.101
106.37	103.962	0.1
106.54	104.131	0.099
106.7	104.282	0.1
106.87	104.452	0.1
107.03	104.631	0.099
107.18	104.801	0.099
107.35	104.941	0.099
107.51	105.111	0.099
107.68	105.261	0.099
107.85	105.461	0.099
108	105.59	0.098
108.17	105.701	0.099
108.33	105.931	0.099
108.5	106.131	0.099
108.67	106.3	0.098
108.83	106.45	0.098
108.99	106.59	0.098
109.15	106.821	0.099
109.32	107.009	0.097
109.48	107.15	0.098
109.65	107.299	0.097
109.81	107.45	0.098
109.96	107.639	0.097
110.12	107.76	0.098
110.28	107.929	0.097
110.44	108.04	0.098
110.61	108.299	0.097
110.77	108.429	0.097
110.93	108.55	0.098
111.09	108.71	0.098
111.25	108.91	0.098
111.41	109.079	0.097
111.58	109.238	0.096
111.74	109.379	0.097
111.91	109.609	0.097
112.06	109.798	0.096
112.23	109.937	0.095
112.39	110.107	0.095
112.56	110.258	0.096
112.72	110.419	0.097
112.87	110.617	0.095
113.03	110.737	0.095
113.2	110.887	0.095
113.36	111.039	0.097
113.53	111.247	0.095
113.69	111.387	0.095
113.85	111.567	0.095
114.01	111.688	0.096
114.17	111.907	0.095
114.34	112.047	0.095
114.5	112.206	0.094
114.67	112.337	0.095
114.82	112.517	0.095
114.98	112.677	0.095
115.14	112.826	0.094
115.31	112.947	0.095
115.48	113.167	0.095
115.64	113.307	0.095
115.8	113.476	0.094
115.95	113.607	0.095
116.11	113.767	0.095
116.27	113.937	0.095
116.43	114.156	0.094
116.6	114.296	0.094
116.76	114.476	0.094
116.92	114.566	0.094
117.08	114.766	0.094
117.25	114.926	0.094
117.41	115.057	0.095
117.57	115.225	0.093
117.73	115.407	0.095
117.9	115.595	0.093
118.06	115.716	0.094
118.22	115.905	0.093
118.38	116.036	0.094
118.54	116.236	0.094
118.71	116.396	0.094
118.87	116.554	0.092
119.03	116.726	0.094
119.19	116.925	0.093
119.35	117.075	0.093
119.52	117.215	0.093
119.68	117.365	0.093
119.85	117.576	0.094
120	117.716	0.094
120.17	117.895	0.093
120.34	118.075	0.093
120.5	118.216	0.094
120.67	118.425	0.093
120.83	118.575	0.093
120.99	118.764	0.092
121.15	118.895	0.093
121.31	119.095	0.093
121.47	119.235	0.093
121.63	119.384	0.092
121.8	119.524	0.092
121.96	119.695	0.093
122.11	119.865	0.093
122.28	120.014	0.092
122.44	120.135	0.093
122.61	120.335	0.093
122.78	120.525	0.093
122.93	120.684	0.092
123.09	120.805	0.093
123.25	120.955	0.093
123.41	121.175	0.093
123.58	121.344	0.092
123.74	121.484	0.092
123.89	121.664	0.092
124.05	121.775	0.093
124.22	121.954	0.092
124.38	122.105	0.093
124.55	122.265	0.093
124.71	122.414	0.092
124.88	122.615	0.093
125.03	122.774	0.092
125.2	122.924	0.092
125.36	123.114	0.092
125.53	123.254	0.092
125.69	123.434	0.092
125.86	123.584	0.092
126.02	123.715	0.093
126.17	123.915	0.093
126.34	124.124	0.092
126.5	124.283	0.091
126.67	124.453	0.091
126.83	124.554	0.092
127	124.764	0.092
127.16	124.924	0.092
127.32	125.074	0.092
127.48	125.213	0.091
127.64	125.374	0.092
127.81	125.564	0.092
127.97	125.704	0.092
128.13	125.844	0.092
128.29	125.993	0.091
128.45	126.164	0.092
128.6	126.313	0.091
128.77	126.513	0.091
128.93	126.613	0.091
129.08	126.764	0.092
129.24	126.936	0.094
129.4	127.172	0.09
129.57	127.262	0.09
129.74	127.414	0.092
129.9	127.595	0.093
130.07	127.813	0.091
130.22	127.942	0.09
130.39	128.113	0.091
130.55	128.334	0.092
130.72	128.513	0.091
130.88	128.682	0.09
131.04	128.842	0.09
131.21	128.973	0.091
131.37	129.152	0.09
131.54	129.292	0.09
131.7	129.443	0.091
131.87	129.612	0.09
132.03	129.822	0.09
132.19	129.962	0.09
132.36	130.112	0.09
132.52	130.281	0.089
132.69	130.462	0.09
132.85	130.622	0.09
133.01	130.771	0.089
133.16	130.911	0.089
133.33	131.141	0.089
133.49	131.311	0.089
133.66	131.461	0.089
133.82	131.611	0.089
133.98	131.781	0.089
134.15	131.961	0.089
134.31	132.13	0.088
134.47	132.27	0.088
134.63	132.45	0.088
134.79	132.571	0.089
134.95	132.781	0.089
135.11	132.94	0.088
135.28	133.139	0.087
135.44	133.21	0.088
135.61	133.441	0.089
135.78	133.61	0.088
135.94	133.769	0.087
136.1	133.889	0.087
136.26	134.051	0.089
136.43	134.25	0.088
136.59	134.429	0.087
136.76	134.53	0.088
136.92	134.72	0.088
137.09	134.92	0.088
137.25	135.129	0.087
137.42	135.239	0.087
137.58	135.4	0.088
137.75	135.647	0.085
137.91	135.808	0.086
138.07	135.929	0.087
138.24	136.078	0.086
138.4	136.229	0.087
138.56	136.399	0.087
138.71	136.519	0.087
138.87	136.669	0.087
139.03	136.829	0.087
139.19	137.078	0.086
139.35	137.178	0.086
139.51	137.358	0.086
139.67	137.498	0.086
139.84	137.718	0.086
139.99	137.848	0.086
140.15	138.008	0.086
140.31	138.129	0.087
140.47	138.358	0.086
140.64	138.527	0.085
140.8	138.687	0.085
140.96	138.827	0.085
141.12	138.968	0.086
141.28	139.167	0.085
141.45	139.297	0.085
141.61	139.457	0.085
141.77	139.618	0.086
141.93	139.788	0.086
142.1	139.977	0.085
142.26	140.127	0.085
142.43	140.287	0.085
142.59	140.447	0.085
142.76	140.637	0.085
142.92	140.797	0.085
143.08	140.927	0.085
143.24	141.086	0.084
143.41	141.248	0.086
143.58	141.477	0.085
143.73	141.596	0.084
143.9	141.727	0.085
144.07	141.937	0.085
144.23	142.137	0.085
144.4	142.296	0.084
144.56	142.426	0.084
144.72	142.597	0.085
144.89	142.807	0.085
145.05	142.956	0.084
145.21	143.106	0.084
145.38	143.256	0.084
145.54	143.408	0.086
145.71	143.577	0.085
145.88	143.766	0.084
146.03	143.886	0.084
146.2	143.997	0.085
146.37	144.257	0.085
146.53	144.416	0.084
146.7	144.557	0.085
146.86	144.726	0.084
147.02	144.897	0.085
147.18	145.076	0.084
147.34	145.216	0.084
147.51	145.407	0.085
147.67	145.617	0.085
147.83	145.756	0.084
147.99	145.906	0.084
148.15	146.066	0.084
148.32	146.267	0.085
148.48	146.406	0.084
148.65	146.557	0.085
148.81	146.697	0.085
148.96	146.867	0.085
149.12	147.057	0.085
149.28	147.207	0.085
149.45	147.376	0.084
149.62	147.536	0.084
149.78	147.707	0.085
149.94	147.857	0.085
150.1	148.007	0.085
150.25	148.147	0.085
150.42	148.307	0.085
150.58	148.467	0.085
150.75	148.637	0.085
150.91	148.777	0.085
151.07	148.898	0.086
151.23	149.068	0.086
151.39	149.277	0.085
151.56	149.437	0.085
151.72	149.587	0.085
151.89	149.737	0.085
152.05	149.928	0.086
152.21	150.117	0.085
152.37	150.237	0.085
152.53	150.416	0.084
152.7	150.527	0.085
152.86	150.717	0.085
153.02	150.867	0.085
153.19	151.017	0.085
153.35	151.157	0.085
153.51	151.358	0.086
153.67	151.517	0.085
153.84	151.667	0.085
154	151.827	0.085
154.16	151.978	0.086
154.33	152.178	0.086
154.49	152.347	0.085
154.66	152.498	0.086
154.82	152.727	0.085
154.98	152.897	0.085
155.14	153.046	0.084
155.31	153.207	0.085
155.48	153.358	0.086
155.64	153.577	0.085
155.81	153.706	0.084
155.96	153.857	0.085
156.12	154.007	0.085
156.28	154.208	0.086
156.45	154.377	0.085
156.61	154.537	0.085
156.77	154.687	0.085
156.93	154.877	0.085
157.1	155.037	0.085
157.25	155.179	0.087
157.42	155.337	0.085
157.58	155.478	0.086
157.74	155.668	0.086
157.91	155.828	0.086
158.07	155.997	0.085
158.24	156.168	0.086
158.4	156.338	0.086
158.57	156.527	0.085
158.73	156.677	0.085
158.9	156.827	0.085
159.06	157.027	0.085
159.23	157.217	0.085
159.39	157.347	0.085
159.55	157.527	0.085
159.71	157.657	0.085
159.88	157.848	0.086
160.04	158.007	0.085
160.2	158.138	0.086
160.37	158.307	0.085
160.53	158.488	0.086
160.7	158.657	0.085
160.85	158.797	0.085
161.01	158.977	0.085
161.18	159.108	0.086
161.34	159.317	0.085
161.51	159.487	0.085
161.67	159.618	0.086
161.83	159.835	0.083
161.99	159.997	0.085
162.14	160.137	0.085
162.31	160.287	0.085
162.46	160.427	0.085
162.62	160.637	0.085
162.79	160.787	0.085
162.94	160.946	0.084
163.1	161.067	0.085
163.26	161.206	0.084
163.42	161.417	0.085
163.59	161.595	0.083
163.75	161.717	0.085
163.92	161.867	0.085
164.08	162.047	0.085
164.25	162.256	0.084
164.42	162.376	0.084
164.58	162.497	0.085
164.75	162.657	0.085
164.91	162.907	0.085
165.08	163.026	0.084
165.24	163.176	0.084
165.41	163.367	0.085
165.57	163.587	0.085
165.74	163.716	0.084
165.9	163.876	0.084
166.07	164.017	0.085
166.24	164.237	0.085
166.4	164.416	0.084
166.57	164.556	0.084
166.73	164.736	0.084
166.89	164.856	0.084
167.04	165.026	0.084
167.2	165.176	0.084
167.37	165.316	0.084
167.53	165.466	0.084
167.69	165.657	0.085
167.85	165.846	0.084
168.01	165.995	0.083
168.17	166.165	0.083
168.33	166.315	0.083
168.5	166.496	0.084
168.66	166.655	0.083
168.82	166.806	0.084
168.98	166.995	0.083
169.14	167.185	0.083
169.31	167.335	0.083
169.47	167.495	0.083
169.64	167.625	0.083
169.8	167.825	0.083
169.97	167.985	0.083
170.13	168.155	0.083
170.29	168.294	0.082
170.46	168.455	0.083
170.62	168.674	0.082
170.79	168.824	0.082
170.94	168.982	0.08
171.1	169.084	0.082
171.26	169.333	0.081
171.42	169.434	0.082
171.59	169.623	0.081
171.75	169.732	0.08
171.92	169.955	0.083
172.07	170.104	0.082
172.24	170.273	0.081
172.4	170.394	0.082
172.57	170.594	0.082
172.73	170.774	0.082
172.9	170.943	0.081
173.06	171.103	0.081
173.23	171.253	0.081
173.39	171.474	0.082
173.55	171.642	0.08
173.71	171.782	0.08
173.88	171.942	0.08
174.04	172.073	0.081
174.2	172.262	0.08
174.37	172.422	0.08
174.53	172.552	0.08
174.7	172.712	0.08
174.86	172.932	0.08
175.02	173.082	0.08
175.19	173.231	0.079
175.35	173.401	0.079
175.52	173.571	0.079
175.68	173.721	0.079
175.84	173.881	0.079
176	174.012	0.08
176.15	174.211	0.079
176.32	174.371	0.079
176.49	174.541	0.079
176.65	174.701	0.079
176.82	174.871	0.079
176.97	175.001	0.079
177.14	175.181	0.079
177.3	175.331	0.079
177.47	175.55	0.078
177.62	175.641	0.079
177.79	175.851	0.079
177.95	176.02	0.078
178.11	176.22	0.078
178.28	176.311	0.079
178.44	176.53	0.078
178.61	176.69	0.078
178.77	176.85	0.078
178.93	176.98	0.078
179.08	177.131	0.079
179.25	177.32	0.078
179.42	177.47	0.078
179.58	177.6	0.078
179.74	177.79	0.078
179.91	178	0.078
180.07	178.16	0.078
180.23	178.28	0.078
180.39	178.42	0.078
180.56	178.64	0.078
180.73	178.86	0.078
180.89	178.989	0.077
181.05	179.139	0.077
181.21	179.27	0.078
181.38	179.48	0.078
181.55	179.61	0.078
181.7	179.75	0.078
181.87	179.881	0.079
182.03	180.16	0.078
182.19	180.279	0.077
182.36	180.44	0.078
182.52	180.58	0.078
182.69	180.82	0.078
182.85	180.96	0.078
183.01	181.129	0.077
183.18	181.26	0.078
183.34	181.49	0.078
183.51	181.649	0.077
183.67	181.799	0.077
183.84	181.959	0.077
184	182.09	0.078
184.16	182.27	0.078
184.32	182.43	0.078
184.49	182.59	0.078
184.65	182.779	0.077
184.82	182.95	0.078
184.98	183.129	0.077
185.15	183.279	0.077
185.31	183.439	0.077
185.48	183.6	0.078
185.64	183.8	0.078
185.8	183.959	0.077
185.96	184.099	0.077
186.12	184.21	0.078
186.28	184.42	0.078
186.45	184.589	0.077
186.61	184.729	0.077
186.78	184.9	0.078
186.94	185.08	0.078
187.11	185.25	0.078
187.27	185.429	0.077
187.43	185.569	0.077
187.6	185.75	0.078
187.76	185.939	0.077
187.92	186.099	0.077
188.09	186.229	0.077
188.25	186.34	0.078
188.42	186.55	0.078
188.58	186.7	0.078
188.75	186.869	0.077
188.91	187	0.078
189.08	187.17	0.078
189.24	187.359	0.077
189.41	187.519	0.077
189.57	187.679	0.077
189.74	187.83	0.078
189.9	188.03	0.078
190.06	188.179	0.077
190.22	188.329	0.077
190.38	188.51	0.078
190.53	188.699	0.077
190.7	188.849	0.077
190.85	188.989	0.077
191.01	189.139	0.077
191.18	189.31	0.078
191.33	189.48	0.078
191.49	189.639	0.077
191.65	189.79	0.078
191.81	189.921	0.079
191.97	190.14	0.078
192.13	190.289	0.077
192.29	190.449	0.077
192.45	190.599	0.077
192.62	190.78	0.078
192.78	190.949	0.077
192.94	191.089	0.077
193.1	191.21	0.078
193.27	191.389	0.077
193.43	191.56	0.078
193.59	191.719	0.077
193.76	191.889	0.077
193.92	192.06	0.078
194.09	192.239	0.077
194.25	192.419	0.077
194.42	192.589	0.077
194.58	192.73	0.078
194.75	192.93	0.078
194.91	193.129	0.077
195.07	193.269	0.077
195.23	193.399	0.077
195.4	193.539	0.077
195.56	193.739	0.077
195.73	193.889	0.077
195.89	194.029	0.077
196.05	194.199	0.077
196.22	194.389	0.077
196.38	194.568	0.076
196.55	194.728	0.076
196.71	194.898	0.076
196.88	195.049	0.077
197.04	195.228	0.076
197.2	195.398	0.076
197.37	195.538	0.076
197.52	195.719	0.077
197.69	195.918	0.076
197.85	196.068	0.076
198.01	196.208	0.076
198.18	196.348	0.076
198.34	196.528	0.076
198.51	196.698	0.076
198.67	196.868	0.076
198.84	197.037	0.075
199	197.178	0.076
199.16	197.377	0.075
199.32	197.537	0.075
199.49	197.697	0.075
199.66	197.837	0.075
199.82	198.037	0.075
199.98	198.187	0.075
200.14	198.337	0.075
200.31	198.497	0.075
200.47	198.668	0.076
200.64	198.827	0.075
200.81	198.987	0.075
200.97	199.137	0.075
201.14	199.288	0.076
201.3	199.487	0.075
201.47	199.656	0.074
201.63	199.796	0.074
201.8	199.957	0.075
201.96	200.147	0.075
202.11	200.326	0.074
202.28	200.476	0.074
202.44	200.646	0.074
202.61	200.756	0.074
202.77	200.936	0.074
202.94	201.106	0.074
203.1	201.246	0.074
203.26	201.405	0.073
203.42	201.586	0.074
203.57	201.765	0.073
203.74	201.935	0.073
203.91	202.095	0.073
204.06	202.235	0.073
204.23	202.415	0.073
204.39	202.575	0.073
204.56	202.744	0.072
204.73	202.915	0.073
204.88	203.105	0.073
205.04	203.236	0.074
205.21	203.415	0.073
205.37	203.554	0.072
205.53	203.735	0.073
205.69	203.914	0.072
205.86	204.084	0.072
206.01	204.234	0.072
206.18	204.394	0.072
206.35	204.594	0.072
206.5	204.764	0.072
206.67	204.963	0.071
206.82	205.064	0.072
206.99	205.264	0.072
207.15	205.433	0.071
207.31	205.573	0.071
207.47	205.723	0.071
207.63	205.903	0.071
207.79	206.083	0.071
207.95	206.223	0.071
208.1	206.373	0.071
208.27	206.553	0.071
208.44	206.743	0.071
208.6	206.903	0.071
208.77	207.062	0.07
208.92	207.213	0.071
209.09	207.422	0.07
209.25	207.582	0.07
209.42	207.733	0.071
209.58	207.882	0.07
209.75	208.032	0.07
209.92	208.222	0.07
210.08	208.372	0.07
210.25	208.582	0.07
210.41	208.712	0.07
210.58	208.921	0.069
210.74	209.061	0.069
210.9	209.212	0.07
211.06	209.381	0.069
211.23	209.551	0.069
211.39	209.711	0.069
211.56	209.881	0.069
211.72	210.09	0.068
211.88	210.221	0.069
212.04	210.4	0.068
212.2	210.54	0.068
212.37	210.71	0.068
212.53	210.871	0.069
212.7	211.07	0.068
212.87	211.24	0.068
213.02	211.38	0.068
213.19	211.52	0.068
213.35	211.73	0.068
213.52	211.889	0.067
213.68	212.011	0.069
213.84	212.169	0.067
214	212.3	0.068
214.16	212.519	0.067
214.33	212.679	0.067
214.49	212.799	0.067
214.66	212.939	0.067
214.81	213.139	0.067
214.97	213.299	0.067
215.13	213.439	0.067
215.29	213.609	0.067
215.46	213.809	0.067
215.61	213.979	0.067
215.78	214.138	0.066
215.94	214.328	0.066
216.11	214.469	0.067
216.28	214.689	0.067
216.44	214.838	0.066
216.6	214.979	0.067
216.77	215.108	0.066
216.93	215.299	0.067
217.1	215.459	0.067
217.26	215.628	0.066
217.43	215.798	0.066
217.59	215.959	0.067
217.76	216.138	0.066
217.92	216.298	0.066
218.09	216.498	0.066
218.25	216.638	0.066
218.42	216.808	0.066
218.58	216.968	0.066
218.75	217.128	0.066
218.91	217.308	0.066
219.08	217.498	0.066
219.25	217.658	0.066
219.4	217.798	0.066
219.56	217.928	0.066
219.72	218.118	0.066
219.88	218.288	0.066
220.05	218.458	0.066
220.21	218.608	0.066
220.37	218.758	0.066
220.53	218.968	0.066
220.7	219.127	0.065
220.86	219.268	0.066
221.02	219.398	0.066
221.19	219.588	0.066
221.35	219.758	0.066
221.51	219.908	0.066
221.68	220.038	0.066
221.84	220.198	0.066
222	220.388	0.066
222.16	220.538	0.066
222.32	220.698	0.066
222.48	220.868	0.066
222.65	221.058	0.066
222.81	221.218	0.066
222.98	221.388	0.066
223.14	221.538	0.066
223.31	221.748	0.066
223.48	221.917	0.065
223.64	222.049	0.067
223.81	222.207	0.065
223.97	222.338	0.066
224.14	222.519	0.067
224.3	222.717	0.065
224.47	222.848	0.066
224.63	222.998	0.066
224.8	223.199	0.067
224.96	223.358	0.066
225.13	223.518	0.066
225.29	223.678	0.066
225.46	223.859	0.067
225.62	224.038	0.066
225.79	224.188	0.066
225.95	224.339	0.067
226.11	224.499	0.067
226.28	224.688	0.066
226.44	224.829	0.067
226.61	224.979	0.067
226.77	225.138	0.066
226.94	225.309	0.067
227.1	225.469	0.067
227.27	225.649	0.067
227.43	225.838	0.066
227.6	225.969	0.067
227.76	226.149	0.067
227.92	226.289	0.067
228.08	226.449	0.067
228.24	226.619	0.067
228.4	226.779	0.067
228.57	226.939	0.067
228.73	227.079	0.067
228.9	227.249	0.067
229.05	227.399	0.067
229.22	227.579	0.067
229.38	227.739	0.067
229.55	227.89	0.068
229.71	228.049	0.067
229.88	228.259	0.067
230.04	228.4	0.068
230.21	228.579	0.067
230.37	228.749	0.067
230.53	228.948	0.066
230.7	229.089	0.067
230.86	229.259	0.067
231.02	229.408	0.066
231.18	229.519	0.067
231.34	229.719	0.067
231.51	229.889	0.067
231.67	230.029	0.067
231.84	230.179	0.067
232	230.399	0.067
232.15	230.579	0.067
232.32	230.709	0.067
232.48	230.869	0.067
232.65	231.049	0.067
232.82	231.249	0.067
232.97	231.379	0.067
233.14	231.539	0.067
233.3	231.739	0.067
233.46	231.889	0.067
233.62	232.041	0.069
233.79	232.219	0.067
233.96	232.38	0.068
234.12	232.579	0.067
234.28	232.719	0.067
234.43	232.869	0.067
234.6	233.019	0.067
234.76	233.229	0.067
234.93	233.389	0.067
235.1	233.549	0.067
235.26	233.689	0.067
235.43	233.889	0.067
235.59	234.039	0.067
235.75	234.199	0.067
235.91	234.329	0.067
236.07	234.479	0.067
236.23	234.659	0.067
236.4	234.847	0.065
236.57	234.999	0.067
236.73	235.169	0.067
236.89	235.329	0.067
237.05	235.509	0.067
237.21	235.659	0.067
237.37	235.829	0.067
237.54	235.999	0.067
237.7	236.189	0.067
237.87	236.349	0.067
238.03	236.499	0.067
238.19	236.618	0.066
238.36	236.799	0.067
238.52	236.969	0.067
238.69	237.129	0.067
238.85	237.288	0.066
239.01	237.419	0.067
239.17	237.628	0.066
239.34	237.788	0.066
239.5	237.938	0.066
239.67	238.098	0.066
239.84	238.279	0.067
239.99	238.448	0.066
240.15	238.588	0.066
240.31	238.738	0.066
240.47	238.929	0.067
240.64	239.118	0.066
240.8	239.268	0.066
240.96	239.418	0.066
241.11	239.578	0.066
241.28	239.768	0.066
241.44	239.928	0.066
241.6	240.088	0.066
241.76	240.218	0.066
241.92	240.418	0.066
242.08	240.578	0.066
242.25	240.738	0.066
242.41	240.878	0.066
242.57	241.058	0.066
242.74	241.228	0.066
242.9	241.397	0.065
243.06	241.537	0.065
243.22	241.688	0.066
243.39	241.868	0.066
243.55	242.037	0.065
243.71	242.197	0.065
243.87	242.339	0.067
244.04	242.528	0.066
244.2	242.717	0.065
244.36	242.877	0.065
244.52	243.017	0.065
244.68	243.188	0.066
244.85	243.387	0.065
245.01	243.537	0.065
245.17	243.687	0.065
245.33	243.797	0.065
245.49	243.997	0.065
245.66	244.147	0.065
245.82	244.327	0.065
245.98	244.467	0.065
246.14	244.628	0.066
246.31	244.817	0.065
246.47	244.977	0.065
246.63	245.157	0.065
246.79	245.277	0.065
246.95	245.477	0.065
247.11	245.627	0.065
247.28	245.787	0.065
247.44	245.967	0.065
247.6	246.137	0.065
247.76	246.287	0.065
247.93	246.457	0.065
248.09	246.597	0.065
248.25	246.777	0.065
248.41	246.937	0.065
248.57	247.117	0.065
248.74	247.277	0.065
248.9	247.427	0.065
249.06	247.617	0.065
249.23	247.787	0.065
249.39	247.937	0.065
249.55	248.087	0.065
249.71	248.267	0.065
249.87	248.437	0.065
250.04	248.606	0.064
250.2	248.727	0.065
250.36	248.887	0.065
250.52	249.077	0.065
250.68	249.227	0.065
250.85	249.387	0.065
251.01	249.547	0.065
251.17	249.737	0.065
251.33	249.897	0.065
251.5	250.056	0.064
251.66	250.197	0.065
251.82	250.397	0.065
251.99	250.557	0.065
252.15	250.716	0.064
252.32	250.857	0.065
252.48	250.986	0.064
252.64	251.157	0.065
252.8	251.327	0.065
252.97	251.477	0.065
253.13	251.646	0.064
253.29	251.807	0.065
253.45	251.987	0.065
253.62	252.147	0.065
253.78	252.336	0.064
253.94	252.457	0.065
254.1	252.637	0.065
254.26	252.796	0.064
254.43	252.937	0.065
254.59	253.136	0.064
254.75	253.277	0.065
254.91	253.456	0.064
255.07	253.606	0.064
255.24	253.766	0.064
255.4	253.916	0.064
255.56	254.096	0.064
255.72	254.236	0.064
255.89	254.426	0.064
256.05	254.556	0.064
256.21	254.766	0.064
256.37	254.906	0.064
256.54	255.106	0.064
256.7	255.225	0.063
256.86	255.406	0.064
257.03	255.566	0.064
257.19	255.746	0.064
257.35	255.886	0.064
257.51	256.056	0.064
257.68	256.236	0.064
257.84	256.396	0.064
258	256.556	0.064
258.16	256.706	0.064
258.33	256.877	0.065
258.49	257.066	0.064
258.65	257.216	0.064
258.81	257.366	0.064
258.97	257.556	0.064
259.14	257.726	0.064
259.3	257.865	0.063
259.46	258.006	0.064
259.62	258.136	0.064
259.79	258.336	0.064
259.95	258.486	0.064
260.11	258.665	0.063
260.28	258.816	0.064
260.44	259.006	0.064
260.6	259.165	0.063
260.76	259.335	0.063
260.92	259.534	0.062
261.08	259.627	0.065
261.24	259.806	0.064
261.4	259.975	0.063
261.56	260.135	0.063
261.73	260.315	0.063
261.89	260.476	0.064
262.06	260.655	0.063
262.22	260.815	0.063
262.39	260.955	0.063
262.55	261.116	0.064
262.71	261.296	0.064
262.87	261.475	0.063
263.04	261.635	0.063
263.2	261.766	0.064
263.36	261.966	0.064
263.53	262.125	0.063
263.69	262.286	0.064
263.85	262.425	0.063
264.01	262.615	0.063
264.18	262.765	0.063
264.34	262.915	0.063
264.5	263.075	0.063
264.66	263.216	0.064
264.82	263.405	0.063
264.99	263.545	0.063
265.15	263.715	0.063
265.31	263.865	0.063
265.47	264.026	0.064
265.64	264.223	0.061
265.8	264.375	0.063
265.96	264.535	0.063
266.12	264.706	0.064
266.28	264.895	0.063
266.45	265.045	0.063
266.61	265.185	0.063
266.77	265.315	0.063
266.93	265.486	0.064
267.1	265.666	0.064
267.26	265.835	0.063
267.42	265.995	0.063
267.58	266.166	0.064
267.74	266.345	0.063
267.91	266.505	0.063
268.07	266.685	0.063
268.23	266.805	0.063
268.39	266.995	0.063
268.56	267.145	0.063
268.72	267.305	0.063
268.88	267.485	0.063
269.04	267.645	0.063
269.21	267.795	0.063
269.37	267.965	0.063
269.53	268.115	0.063
269.69	268.275	0.063
269.86	268.465	0.063
270.02	268.635	0.063
270.18	268.795	0.063
270.34	268.935	0.063
270.51	269.135	0.063
270.67	269.305	0.063
270.83	269.465	0.063
271	269.595	0.063
271.16	269.785	0.063
271.32	269.955	0.063
271.49	270.105	0.063
271.65	270.254	0.062
271.81	270.405	0.063
271.98	270.585	0.063
272.14	270.744	0.062
272.3	270.914	0.062
272.47	271.064	0.062
272.63	271.264	0.062
272.79	271.424	0.062
272.96	271.584	0.062
273.12	271.734	0.062
273.28	271.924	0.062
273.44	272.094	0.062
273.61	272.254	0.062
273.77	272.394	0.062
273.93	272.514	0.062
274.09	272.724	0.062
274.25	272.894	0.062
274.42	273.053	0.061
274.58	273.202	0.06
274.74	273.394	0.062
274.91	273.573	0.061
275.07	273.733	0.061
275.23	273.883	0.061
275.39	274.053	0.061
275.56	274.223	0.061
275.72	274.373	0.061
275.88	274.523	0.061
276.04	274.693	0.061
276.21	274.883	0.061
276.37	275.033	0.061
276.53	275.203	0.061
276.69	275.343	0.061
276.86	275.523	0.061
277.02	275.683	0.061
277.18	275.853	0.061
277.34	276.003	0.061
277.51	276.163	0.061
277.67	276.333	0.061
277.83	276.484	0.062
278	276.699	0.057
278.16	276.812	0.06
278.32	276.983	0.061
278.49	277.152	0.06
278.65	277.312	0.06
278.81	277.442	0.06
278.97	277.603	0.061
279.14	277.793	0.061
279.3	277.952	0.06
279.46	278.084	0.062
279.62	278.262	0.06
279.79	278.443	0.061
279.95	278.632	0.06
280.11	278.782	0.06
280.27	278.922	0.06
280.44	279.122	0.06
280.6	279.302	0.06
280.76	279.442	0.06
280.92	279.582	0.06
281.09	279.713	0.061
281.25	279.903	0.061
281.41	280.073	0.061
281.58	280.233	0.061
281.74	280.392	0.06
281.9	280.583	0.061
282.07	280.743	0.061
282.23	280.912	0.06
282.39	281.062	0.06
282.55	281.223	0.061
282.72	281.383	0.061
282.88	281.562	0.06
283.04	281.694	0.062
283.21	281.873	0.061
283.37	282.053	0.061
283.53	282.232	0.06
283.69	282.373	0.061
283.86	282.512	0.06
284.02	282.693	0.061
284.18	282.872	0.06
284.35	283.032	0.06
284.51	283.192	0.06
284.67	283.353	0.061
284.83	283.542	0.06
285	283.692	0.06
285.16	283.862	0.06
285.33	283.993	0.061
285.49	284.173	0.061
285.65	284.342	0.06
285.82	284.502	0.06
285.98	284.652	0.06
286.14	284.803	0.061
286.3	284.992	0.06
286.47	285.133	0.061
286.63	285.293	0.061
286.79	285.453	0.061
286.95	285.623	0.061
287.12	285.793	0.061
287.28	285.953	0.061
287.44	286.113	0.061
287.6	286.293	0.061
287.77	286.463	0.061
287.93	286.603	0.061
288.09	286.762	0.06
288.25	286.893	0.061
288.42	287.073	0.061
288.58	287.233	0.061
288.74	287.393	0.061
288.91	287.533	0.061
289.07	287.733	0.061
289.23	287.913	0.061
289.39	288.063	0.061
289.56	288.223	0.061
289.72	288.383	0.061
289.88	288.563	0.061
290.04	288.713	0.061
290.21	288.853	0.061
290.37	289.043	0.061
290.53	289.223	0.061
290.69	289.373	0.061
290.85	289.534	0.062
291.02	289.673	0.061
291.18	289.854	0.062
291.34	290.014	0.062
291.51	290.194	0.062
291.67	290.353	0.061
291.83	290.514	0.062
291.99	290.684	0.062
292.16	290.864	0.062
292.32	291.004	0.062
292.48	291.154	0.062
292.64	291.325	0.063
292.81	291.504	0.062
292.97	291.644	0.062
293.13	291.804	0.062
293.3	291.965	0.063
293.46	292.125	0.063
293.62	292.285	0.063
293.78	292.455	0.063
293.95	292.615	0.063
294.11	292.795	0.063
294.27	292.955	0.063
294.43	293.105	0.063
294.6	293.265	0.063
294.76	293.474	0.062
294.93	293.625	0.063
295.09	293.765	0.063
295.25	293.905	0.063
295.41	294.026	0.064
295.57	294.216	0.064
295.74	294.376	0.064
295.9	294.536	0.064
296.06	294.696	0.064
296.22	294.886	0.064
296.38	295.036	0.064
296.55	295.196	0.064
296.71	295.356	0.064
296.87	295.516	0.064
297.03	295.686	0.064
297.19	295.836	0.064
297.36	295.996	0.064
297.52	296.156	0.064
297.68	296.326	0.064
297.84	296.516	0.064
298.01	296.666	0.064
298.17	296.806	0.064
298.33	296.966	0.064
298.5	297.156	0.064
298.66	297.297	0.065
298.82	297.476	0.064
298.99	297.636	0.064
299.15	297.816	0.064
299.31	297.966	0.064
299.47	298.126	0.064
299.63	298.256	0.064
299.8	298.456	0.064
299.96	298.596	0.064
300.12	298.766	0.064
300.28	298.905	0.063
300.44	299.076	0.064
300.61	299.256	0.064
300.77	299.425	0.063
300.93	299.575	0.063
301.1	299.725	0.063
301.26	299.906	0.064
301.42	300.085	0.063
301.58	300.235	0.063
301.75	300.376	0.064
301.91	300.575	0.063
302.07	300.755	0.063
302.23	300.905	0.063
302.4	301.045	0.063
302.56	301.185	0.063
302.72	301.365	0.063
302.89	301.545	0.063
303.05	301.695	0.063
303.21	301.863	0.061
303.38	302.025	0.063
303.54	302.204	0.062
303.7	302.364	0.062
303.87	302.544	0.062
304.03	302.674	0.062
304.19	302.844	0.062
304.35	303.004	0.062
304.51	303.154	0.062
304.68	303.344	0.062
304.84	303.524	0.062
305	303.684	0.062
305.16	303.834	0.062
305.32	303.974	0.062
305.49	304.144	0.062
305.65	304.314	0.062
305.81	304.484	0.062
305.97	304.644	0.062
306.14	304.785	0.063
306.3	304.974	0.062
306.46	305.133	0.061
306.62	305.294	0.062
306.79	305.443	0.061
306.95	305.604	0.062
307.11	305.783	0.061
307.28	305.933	0.061
307.44	306.093	0.061
307.6	306.223	0.061
307.76	306.423	0.061
307.92	306.573	0.061
308.08	306.753	0.061
308.25	306.903	0.061
308.41	307.093	0.061
308.57	307.233	0.061
308.74	307.403	0.061
308.9	307.563	0.061
309.06	307.733	0.061
309.22	307.913	0.061
309.39	308.082	0.06
309.55	308.212	0.06
309.71	308.351	0.059
309.87	308.523	0.061
310.04	308.702	0.06
310.2	308.862	0.06
310.36	309.022	0.06
310.52	309.192	0.06
310.69	309.372	0.06
310.85	309.522	0.06
311.01	309.682	0.06
311.17	309.822	0.06
311.34	310.022	0.06
311.5	310.162	0.06
311.66	310.322	0.06
311.82	310.512	0.06
311.99	310.652	0.06
312.15	310.822	0.06
312.31	310.982	0.06
312.48	311.151	0.059
312.64	311.292	0.06
312.8	311.462	0.06
312.96	311.622	0.06
313.12	311.801	0.059
313.29	311.941	0.059
313.45	312.121	0.059
313.61	312.291	0.059
313.77	312.441	0.059
313.94	312.601	0.059
314.1	312.761	0.059
314.26	312.931	0.059
314.43	313.081	0.059
314.59	313.221	0.059
314.75	313.371	0.059
314.92	313.551	0.059
315.08	313.731	0.059
315.25	313.871	0.059
315.41	314.071	0.059
315.57	314.201	0.059
315.73	314.391	0.059
315.89	314.532	0.06
316.06	314.74	0.058
316.22	314.861	0.059
316.38	315.051	0.059
316.54	315.181	0.059
316.71	315.351	0.059
316.87	315.51	0.058
317.03	315.661	0.059
317.19	315.821	0.059
317.36	315.991	0.059
317.52	316.151	0.059
317.68	316.311	0.059
317.84	316.501	0.059
318.01	316.661	0.059
318.17	316.831	0.059
318.33	316.971	0.059
318.5	317.161	0.059
318.66	317.321	0.059
318.82	317.461	0.059
318.98	317.61	0.058
319.14	317.771	0.059
319.31	317.971	0.059
319.47	318.121	0.059
319.63	318.271	0.059
319.79	318.391	0.059
319.95	318.591	0.059
320.11	318.751	0.059
320.28	318.911	0.059
320.44	319.091	0.059
320.6	319.231	0.059
320.77	319.448	0.056
320.93	319.571	0.059
321.09	319.761	0.059
321.26	319.891	0.059
321.42	320.061	0.059
321.58	320.211	0.059
321.75	320.361	0.059
321.9	320.501	0.059
322.07	320.662	0.06
322.23	320.861	0.059
322.39	321.011	0.059
322.56	321.171	0.059
322.72	321.341	0.059
322.88	321.521	0.059
323.05	321.691	0.059
323.21	321.841	0.059
323.37	322.011	0.059
323.54	322.181	0.059
323.7	322.351	0.059
323.86	322.481	0.059
324.02	322.661	0.059
324.18	322.781	0.059
324.35	322.961	0.059
324.51	323.111	0.059
324.67	323.271	0.059
324.83	323.411	0.059
325	323.592	0.06
325.16	323.751	0.059
325.32	323.921	0.059
325.48	324.081	0.059
325.65	324.241	0.059
325.81	324.411	0.059
325.98	324.561	0.059
326.14	324.701	0.059
326.31	324.873	0.061
326.46	325.072	0.06
326.63	325.231	0.059
326.79	325.382	0.06
326.96	325.521	0.059
327.11	325.692	0.06
327.27	325.852	0.06
327.43	326.002	0.06
327.59	326.162	0.06
327.75	326.322	0.06
327.91	326.512	0.06
328.08	326.672	0.06
328.23	326.821	0.059
328.4	326.952	0.06
328.56	327.142	0.06
328.73	327.284	0.062
328.89	327.462	0.06
329.04	327.619	0.057
329.21	327.772	0.06
329.37	327.952	0.06
329.53	328.092	0.06
329.7	328.262	0.06
329.86	328.422	0.06
330.02	328.592	0.06
330.18	328.772	0.06
330.35	328.932	0.06
330.51	329.082	0.06
330.68	329.272	0.06
330.84	329.442	0.06
331	329.582	0.06
331.17	329.733	0.061
331.33	329.882	0.06
331.49	330.043	0.061
331.65	330.223	0.061
331.82	330.372	0.06
331.98	330.532	0.06
332.14	330.673	0.061
332.31	330.873	0.061
332.47	331.042	0.06
332.64	331.183	0.061
332.79	331.323	0.061
332.95	331.523	0.061
333.11	331.663	0.061
333.26	331.803	0.061
333.42	331.943	0.061
333.59	332.143	0.061
333.75	332.323	0.061
333.92	332.493	0.061
334.08	332.633	0.061
334.25	332.794	0.062
334.42	332.973	0.061
334.58	333.144	0.062
334.75	333.303	0.061
334.91	333.434	0.062
335.07	333.634	0.062
335.22	333.784	0.062
335.39	333.953	0.061
335.55	334.093	0.061
335.72	334.264	0.062
335.88	334.424	0.062
336.04	334.594	0.062
336.21	334.724	0.062
336.37	334.884	0.062
336.53	335.074	0.062
336.69	335.234	0.062
336.86	335.404	0.062
337.01	335.564	0.062
337.17	335.724	0.062
337.34	335.894	0.062
337.5	336.054	0.062
337.67	336.204	0.062
337.83	336.373	0.061
338	336.554	0.062
338.16	336.694	0.062
338.33	336.844	0.062
338.49	336.984	0.062
338.66	337.154	0.062
338.82	337.324	0.062
338.99	337.494	0.062
339.15	337.674	0.062
339.32	337.824	0.062
339.49	338.014	0.062
339.65	338.174	0.062
339.82	338.334	0.062
339.97	338.474	0.062
340.14	338.654	0.062
340.29	338.804	0.062
340.46	338.964	0.062
340.62	339.094	0.062
340.77	339.284	0.062
340.93	339.464	0.062
341.1	339.624	0.062
341.26	339.803	0.061
341.42	339.914	0.062
341.58	340.114	0.062
341.74	340.274	0.062
341.91	340.444	0.062
342.07	340.594	0.062
342.24	340.794	0.062
342.4	340.934	0.062
342.57	341.114	0.062
342.73	341.263	0.061
342.89	341.414	0.062
343.05	341.574	0.062
343.21	341.734	0.062
343.38	341.884	0.062
343.54	342.033	0.061
343.7	342.204	0.062
343.87	342.384	0.062
344.03	342.553	0.061
344.19	342.733	0.061
344.36	342.873	0.061
344.52	343.043	0.061
344.69	343.202	0.06
344.85	343.343	0.061
345.01	343.503	0.061
345.18	343.683	0.061
345.34	343.843	0.061
345.51	344.003	0.061
345.67	344.162	0.06
345.84	344.293	0.061
345.99	344.453	0.061
346.16	344.663	0.061
346.32	344.862	0.06
346.49	344.973	0.061
346.66	345.192	0.06
346.82	345.332	0.06
346.97	345.463	0.061
347.13	345.622	0.06
347.29	345.802	0.06
347.45	345.962	0.06
347.62	346.112	0.06
347.78	346.262	0.06
347.95	346.451	0.059
348.11	346.642	0.06
348.27	346.801	0.059
348.44	346.971	0.059
348.59	347.092	0.06
348.75	347.272	0.06
348.92	347.442	0.06
349.08	347.592	0.06
349.24	347.762	0.06
349.4	347.932	0.06
349.57	348.121	0.059
349.73	348.261	0.059
349.9	348.441	0.059
350.06	348.552	0.06
350.22	348.751	0.059
350.39	348.901	0.059
350.55	349.051	0.059
350.72	349.191	0.059
350.88	349.342	0.06
351.04	349.532	0.06
351.21	349.701	0.059
351.36	349.841	0.059
351.53	350.002	0.06
351.7	350.211	0.059
351.86	350.401	0.059
352.03	350.531	0.059
352.19	350.701	0.059
352.36	350.901	0.059
352.52	351.061	0.059
352.69	351.191	0.059
352.85	351.341	0.059
353.01	351.481	0.059
353.18	351.681	0.059
353.34	351.831	0.059
353.51	351.981	0.059
353.67	352.151	0.059
353.83	352.361	0.059
353.99	352.501	0.059
354.15	352.661	0.059
354.32	352.811	0.059
354.48	353.001	0.059
354.65	353.16	0.058
354.81	353.311	0.059
354.97	353.441	0.059
355.14	353.621	0.059
355.3	353.821	0.059
355.47	354.001	0.059
355.62	354.17	0.058
355.79	354.271	0.059
355.96	354.461	0.059
356.11	354.641	0.059
356.28	354.801	0.059
356.44	354.961	0.059
356.61	355.151	0.059
356.78	355.321	0.059
356.94	355.461	0.059
357.1	355.62	0.058
357.26	355.751	0.059
357.43	355.911	0.059
357.59	356.051	0.059
357.76	356.211	0.059
357.92	356.381	0.059
358.08	356.521	0.059
358.25	356.721	0.059
358.41	356.871	0.059
358.57	357.061	0.059
358.72	357.181	0.059
358.88	357.381	0.059
359.04	357.541	0.059
359.21	357.711	0.059
359.37	357.831	0.059
359.54	358.052	0.06
359.7	358.191	0.059
359.87	358.371	0.059
360.03	358.511	0.059
360.19	358.651	0.059
360.36	358.831	0.059
360.53	359.021	0.059
360.69	359.151	0.059
360.86	359.321	0.059
361.01	359.521	0.059
361.18	359.691	0.059
361.34	359.831	0.059
361.5	359.971	0.059
361.67	360.151	0.059
361.83	360.331	0.059
361.99	360.471	0.059
362.15	360.621	0.059
362.32	360.831	0.059
362.49	361.021	0.059
362.65	361.151	0.059
362.82	361.331	0.059
362.98	361.481	0.059
363.14	361.661	0.059
363.3	361.811	0.059
363.47	361.971	0.059
363.63	362.121	0.059
363.78	362.311	0.059
363.95	362.461	0.059
364.12	362.621	0.059
364.28	362.791	0.059
364.45	362.931	0.059
364.61	363.111	0.059
364.78	363.261	0.059
364.94	363.411	0.059
365.11	363.571	0.059
365.27	363.761	0.059
365.43	363.931	0.059
365.6	364.081	0.059
365.76	364.271	0.059
365.93	364.451	0.059
366.1	364.621	0.059
366.25	364.771	0.059
366.42	364.931	0.059
366.58	365.091	0.059
366.75	365.291	0.059
366.91	365.45	0.058
367.07	365.57	0.058
367.24	365.7	0.058
367.4	365.881	0.059
367.56	366.051	0.059
367.72	366.221	0.059
367.89	366.39	0.058
368.05	366.551	0.059
368.21	366.731	0.059
368.38	366.9	0.058
368.54	367.07	0.058
368.71	367.21	0.058
368.87	367.401	0.059
369.03	367.531	0.059
369.2	367.69	0.058
369.36	367.871	0.059
369.53	368.021	0.059
369.69	368.191	0.059
369.86	368.361	0.059
370.01	368.51	0.058
370.18	368.661	0.059
370.35	368.831	0.059
370.51	369.011	0.059
370.68	369.171	0.059
370.84	369.32	0.058
371	369.491	0.059
371.16	369.66	0.058
371.32	369.81	0.058
371.48	369.97	0.058
371.65	370.131	0.059
371.81	370.31	0.058
371.98	370.47	0.058
372.14	370.61	0.058
372.31	370.76	0.058
372.47	370.931	0.059
372.64	371.12	0.058
372.8	371.234	0.062
372.96	371.45	0.058
373.12	371.581	0.059
373.28	371.78	0.058
373.44	371.94	0.058
373.61	372.1	0.058
373.77	372.26	0.058
373.93	372.44	0.058
374.1	372.59	0.058
374.26	372.73	0.058
374.43	372.87	0.058
374.58	373.031	0.059
374.74	373.22	0.058
374.9	373.37	0.058
375.06	373.56	0.058
375.22	373.67	0.058
375.38	373.88	0.058
375.55	374.04	0.058
375.71	374.19	0.058
375.88	374.33	0.058
376.04	374.51	0.058
376.2	374.67	0.058
376.37	374.83	0.058
376.53	374.95	0.058
376.69	375.15	0.058
376.86	375.33	0.058
377.01	375.51	0.058
377.17	375.679	0.057
377.34	375.798	0.056
377.5	376	0.058
377.67	376.17	0.058
377.83	376.329	0.057
377.99	376.46	0.058
378.15	376.66	0.058
378.31	376.829	0.057
378.47	376.979	0.057
378.64	377.139	0.057
378.8	377.27	0.058
378.96	377.431	0.059
379.11	377.599	0.057
379.28	377.729	0.057
379.45	377.889	0.057
379.61	378.07	0.058
379.78	378.259	0.057
379.94	378.409	0.057
380.11	378.559	0.057
380.27	378.759	0.057
380.43	378.909	0.057
380.6	379.108	0.056
380.76	379.248	0.056
380.92	379.389	0.057
381.07	379.551	0.059
381.24	379.708	0.056
381.41	379.887	0.055
381.57	380.038	0.056
381.73	380.168	0.056
381.89	380.348	0.056
382.06	380.508	0.056
382.22	380.648	0.056
382.39	380.788	0.056
382.55	380.958	0.056
382.72	381.128	0.056
382.88	381.268	0.056
383.04	381.458	0.056
383.2	381.568	0.056
383.36	381.738	0.056
383.53	381.928	0.056
383.69	382.068	0.056
383.85	382.248	0.056
384.01	382.456	0.054
384.17	382.627	0.055
384.34	382.776	0.054
384.5	382.897	0.055
384.67	383.068	0.056
384.83	383.248	0.056
385	383.437	0.055
385.16	383.597	0.055
385.32	383.747	0.055
385.49	383.917	0.055
385.65	384.078	0.056
385.81	384.257	0.055
385.97	384.367	0.055
386.13	384.558	0.056
386.28	384.717	0.055
386.44	384.887	0.055
386.61	384.997	0.055
386.77	385.177	0.055
386.93	385.348	0.056
387.08	385.536	0.054
387.24	385.647	0.055
387.4	385.827	0.055
387.56	386.018	0.056
387.72	386.207	0.055
387.89	386.337	0.055
388.04	386.487	0.055
388.21	386.678	0.056
388.38	386.877	0.055
388.54	387.017	0.055
388.71	387.157	0.055
388.87	387.297	0.055
389.03	387.458	0.056
389.19	387.638	0.056
389.35	387.797	0.055
389.51	387.937	0.055
389.68	388.108	0.056
389.84	388.297	0.055
390	388.447	0.055
390.16	388.637	0.055
390.32	388.738	0.056
390.48	388.917	0.055
390.65	389.058	0.056
390.81	389.228	0.056
390.97	389.438	0.056
391.13	389.607	0.055
391.29	389.767	0.055
391.45	389.907	0.055
391.61	390.047	0.055
391.77	390.198	0.056
391.93	390.379	0.057
392.08	390.547	0.055
392.25	390.698	0.056
392.42	390.857	0.055
392.58	391.048	0.056
392.75	391.217	0.055
392.91	391.367	0.055
393.07	391.497	0.055
393.22	391.648	0.056
393.39	391.848	0.056
393.55	391.997	0.055
393.72	392.137	0.055
393.89	392.287	0.055
394.04	392.488	0.056
394.2	392.627	0.055
394.36	392.807	0.055
394.51	392.917	0.055
394.68	393.118	0.056
394.84	393.277	0.055
395	393.467	0.055
395.15	393.577	0.055
395.32	393.718	0.056
395.49	393.928	0.056
395.65	394.118	0.056
395.82	394.227	0.055
395.97	394.387	0.055
396.13	394.508	0.056
396.3	394.678	0.056
396.46	394.858	0.056
396.62	394.998	0.056
396.78	395.138	0.056
396.93	395.368	0.056
397.09	395.508	0.056
397.26	395.677	0.055
397.43	395.827	0.055
397.59	396.008	0.056
397.76	396.168	0.056
397.92	396.318	0.056
398.08	396.448	0.056
398.24	396.638	0.056
398.4	396.818	0.056
398.57	396.968	0.056
398.73	397.118	0.056
398.89	397.238	0.056
399.05	397.428	0.056
399.21	397.578	0.056
399.36	397.748	0.056
399.52	397.888	0.056
399.68	398.058	0.056
399.85	398.228	0.056
400.01	398.388	0.056
400.16	398.538	0.056
400.32	398.697	0.055
400.48	398.838	0.056
400.64	399.028	0.056
400.81	399.177	0.055
400.96	399.288	0.056
401.12	399.448	0.056
401.28	399.618	0.056
401.44	399.817	0.055
401.6	399.937	0.055
401.77	400.147	0.055
401.93	400.288	0.056
402.09	400.497	0.055
402.25	400.599	0.057
402.41	400.807	0.055
402.57	400.918	0.056
402.73	401.138	0.056
402.9	401.277	0.055
403.05	401.437	0.055
403.21	401.557	0.055
403.37	401.688	0.056
403.54	401.878	0.056
403.7	402.058	0.056
403.87	402.197	0.055
404.02	402.368	0.056
404.18	402.578	0.056
404.34	402.738	0.056
404.5	402.868	0.056
404.67	403.018	0.056
404.83	403.198	0.056
404.99	403.358	0.056
405.15	403.498	0.056
405.31	403.629	0.057
405.46	403.828	0.056
405.63	404.018	0.056
405.78	404.149	0.057
405.94	404.308	0.056
406.1	404.438	0.056
406.26	404.639	0.057
406.42	404.798	0.056
406.58	404.948	0.056
406.74	405.098	0.056
406.9	405.239	0.057
407.06	405.419	0.057
407.22	405.579	0.057
407.38	405.719	0.057
407.54	405.858	0.056
407.7	406.019	0.057
407.87	406.179	0.057
408.02	406.319	0.057
408.19	406.449	0.057
408.35	406.629	0.057
408.52	406.8	0.058
408.68	406.989	0.057
408.85	407.139	0.057
409.01	407.29	0.058
409.16	407.48	0.058
409.32	407.649	0.057
409.49	407.799	0.057
409.64	407.959	0.057
409.8	408.1	0.058
409.96	408.26	0.058
410.11	408.419	0.057
410.27	408.549	0.057
410.44	408.709	0.057
410.6	408.83	0.058
410.77	409.05	0.058
410.92	409.18	0.058
411.08	409.359	0.057
411.24	409.469	0.057
411.39	409.687	0.055
411.55	409.83	0.058
411.71	410.009	0.057
411.88	410.139	0.057
412.04	410.28	0.058
412.2	410.45	0.058
412.36	410.62	0.058
412.52	410.75	0.058
412.68	410.97	0.058
412.85	411.16	0.058
413.01	411.32	0.058
413.16	411.45	0.058
413.32	411.58	0.058
413.48	411.76	0.058
413.64	411.97	0.058
413.81	412.1	0.058
413.97	412.27	0.058
414.12	412.43	0.058
414.28	412.64	0.058
414.44	412.739	0.057
414.6	412.87	0.058
414.75	412.99	0.058
414.92	413.201	0.059
415.07	413.36	0.058
415.23	413.51	0.058
415.39	413.63	0.058
415.56	413.811	0.059
415.71	414	0.058
415.87	414.15	0.058
416.03	414.3	0.058
416.19	414.49	0.058
416.35	414.67	0.058
416.51	414.84	0.058
416.67	414.98	0.058
416.83	415.12	0.058
416.98	415.281	0.059
417.15	415.481	0.059
417.31	415.65	0.058
417.47	415.76	0.058
417.63	415.91	0.058
417.79	416.051	0.059
417.95	416.211	0.059
418.11	416.36	0.058
418.27	416.501	0.059
418.43	416.651	0.059
418.59	416.88	0.058
418.75	417.02	0.058
418.91	417.171	0.059
419.07	417.31	0.058
419.23	417.481	0.059
419.39	417.66	0.058
419.55	417.78	0.058
419.71	417.951	0.059
419.87	418.131	0.059
420.03	418.349	0.057
420.2	418.471	0.059
420.35	418.65	0.058
420.52	418.76	0.058
420.69	418.961	0.059
420.84	419.121	0.059
421	419.28	0.058
421.17	419.45	0.058
421.32	419.591	0.059
421.48	419.771	0.059
421.65	419.93	0.058
421.81	420.07	0.058
421.97	420.22	0.058
422.13	420.391	0.059
422.28	420.58	0.058
422.44	420.71	0.058
422.6	420.83	0.058
422.76	421.021	0.059
422.92	421.23	0.058
423.08	421.35	0.058
423.24	421.48	0.058
423.39	421.651	0.059
423.55	421.84	0.058
423.71	422.01	0.058
423.88	422.16	0.058
424.04	422.31	0.058
424.2	422.51	0.058
424.37	422.67	0.058
424.53	422.81	0.058
424.68	422.93	0.058
424.84	423.06	0.058
425	423.21	0.058
425.16	423.401	0.059
425.33	423.57	0.058
425.49	423.74	0.058
425.64	423.881	0.059
425.8	424.1	0.058
425.96	424.25	0.058
426.12	424.379	0.057
426.27	424.52	0.058
426.43	424.671	0.059
426.59	424.84	0.058
426.74	424.98	0.058
426.9	425.111	0.059
427.06	425.301	0.059
427.22	425.511	0.059
427.38	425.66	0.058
427.55	425.85	0.058
427.71	425.951	0.059
427.87	426.161	0.059
428.03	426.311	0.059
428.2	426.5	0.058
428.35	426.64	0.058
428.51	426.801	0.059
428.67	426.98	0.058
428.83	427.101	0.059
428.99	427.241	0.059
429.15	427.401	0.059
429.31	427.611	0.059
429.47	427.771	0.059
429.63	427.9	0.058
429.79	428.05	0.058
429.95	428.221	0.059
430.1	428.391	0.059
430.26	428.55	0.058
430.42	428.681	0.059
430.58	428.851	0.059
430.73	429.021	0.059
430.89	429.208	0.056
431.05	429.33	0.058
431.22	429.47	0.058
431.37	429.621	0.059
431.53	429.821	0.059
431.7	429.97	0.058
431.86	430.09	0.058
432.01	430.22	0.058
432.17	430.391	0.059
432.33	430.571	0.059
432.5	430.731	0.059
432.66	430.901	0.059
432.83	431.061	0.059
432.98	431.241	0.059
433.14	431.381	0.059
433.3	431.521	0.059
433.46	431.671	0.059
433.62	431.87	0.058
433.78	432.011	0.059
433.93	432.133	0.061
434.09	432.291	0.059
434.25	432.481	0.059
434.41	432.671	0.059
434.57	432.821	0.059
434.74	433.02	0.058
434.9	433.141	0.059
435.07	433.321	0.059
435.24	433.501	0.059
435.4	433.641	0.059
435.57	433.801	0.059
435.72	433.951	0.059
435.88	434.141	0.059
436.04	434.271	0.059
436.2	434.461	0.059
436.36	434.541	0.059
436.53	434.741	0.059
436.68	434.881	0.059
436.84	435.001	0.059
437	435.191	0.059
437.17	435.321	0.059
437.33	435.511	0.059
437.49	435.651	0.059
437.66	435.831	0.059
437.82	436.001	0.059
437.98	436.221	0.059
438.14	436.37	0.058
438.31	436.53	0.058
438.47	436.641	0.059
438.64	436.871	0.059
438.8	437.052	0.06
438.96	437.17	0.058
439.12	437.27	0.058
439.28	437.422	0.06
439.43	437.602	0.06
439.59	437.821	0.059
439.75	437.941	0.059
439.91	438.101	0.059
440.06	438.312	0.06
440.22	438.481	0.059
440.38	438.621	0.059
440.54	438.781	0.059
440.71	438.912	0.06
440.87	439.092	0.06
441.03	439.242	0.06
441.19	439.382	0.06
441.35	439.582	0.06
441.51	439.772	0.06
441.66	439.913	0.061
441.82	440.082	0.06
441.98	440.202	0.06
442.15	440.402	0.06
442.3	440.582	0.06
442.46	440.742	0.06
442.63	440.891	0.059
442.78	441.052	0.06
442.94	441.212	0.06
443.1	441.352	0.06
443.26	441.492	0.06
443.41	441.642	0.06
443.57	441.783	0.061
443.74	442.002	0.06
443.9	442.122	0.06
444.06	442.242	0.06
444.22	442.403	0.061
444.38	442.583	0.061
444.53	442.773	0.061
444.69	442.912	0.06
444.85	443.024	0.062
445.01	443.263	0.061
445.17	443.462	0.06
445.32	443.572	0.06
445.48	443.712	0.06
445.65	443.853	0.061
445.8	444.083	0.061
445.96	444.202	0.06
446.12	444.372	0.06
446.28	444.462	0.06
446.44	444.613	0.061
446.61	444.813	0.061
446.76	444.983	0.061
446.92	445.159	0.057
447.08	445.273	0.061
447.24	445.463	0.061
447.39	445.643	0.061
447.55	445.782	0.06
447.71	445.942	0.06
447.87	446.072	0.06
448.03	446.224	0.062
448.19	446.392	0.06
448.34	446.552	0.06
448.5	446.713	0.061
448.66	446.913	0.061
448.82	447.042	0.06
448.97	447.202	0.06
449.14	447.342	0.06
449.29	447.473	0.061
449.46	447.672	0.06
449.63	447.842	0.06
449.79	448.002	0.06
449.95	448.152	0.06
450.12	448.352	0.06
450.28	448.502	0.06
450.43	448.622	0.06
450.59	448.792	0.06
450.75	448.893	0.061
450.91	449.062	0.06
451.06	449.213	0.061
451.22	449.372	0.06
451.38	449.523	0.061
451.53	449.703	0.061
451.69	449.883	0.061
451.86	450.052	0.06
452.02	450.173	0.061
452.17	450.363	0.061
452.33	450.534	0.062
452.49	450.676	0.064
452.64	450.853	0.061
452.8	450.982	0.06
452.96	451.163	0.061
453.12	451.353	0.061
453.28	451.462	0.06
453.43	451.592	0.06
453.6	451.723	0.061
453.75	451.923	0.061
453.91	452.103	0.061
454.07	452.262	0.06
454.23	452.403	0.061
454.39	452.603	0.061
454.54	452.763	0.061
454.7	452.923	0.061
454.87	453.093	0.061
455.03	453.158	0.066
455.18	453.383	0.061
455.35	453.543	0.061
455.51	453.682	0.06
455.67	453.813	0.061
455.83	454.053	0.061
455.99	454.233	0.061
456.15	454.373	0.061
456.32	454.513	0.061
456.48	454.713	0.061
456.64	454.882	0.06
456.81	455.043	0.061
456.96	455.163	0.061
457.12	455.313	0.061
457.28	455.523	0.061
457.43	455.663	0.061
457.59	455.803	0.061
457.75	455.963	0.061
457.9	456.123	0.061
458.06	456.303	0.061
458.22	456.413	0.061
458.38	456.543	0.061
458.54	456.713	0.061
458.71	456.903	0.061
458.87	457.073	0.061
459.03	457.213	0.061
459.19	457.363	0.061
459.34	457.543	0.061
459.51	457.733	0.061
459.67	457.883	0.061
459.83	458.023	0.061
459.99	458.183	0.061
460.15	458.374	0.062
460.31	458.553	0.061
460.47	458.673	0.061
460.64	458.853	0.061
460.79	458.944	0.062
460.95	459.144	0.062
461.11	459.304	0.062
461.28	459.454	0.062
461.43	459.613	0.061
461.59	459.774	0.062
461.75	459.954	0.062
461.91	460.093	0.061
462.07	460.263	0.061
462.23	460.333	0.061
462.38	460.494	0.062
462.55	460.664	0.062
462.71	460.834	0.062
462.88	460.944	0.062
463.04	461.174	0.062
463.19	461.354	0.062
463.35	461.553	0.061
463.51	461.673	0.061
463.67	461.824	0.062
463.83	462.034	0.062
463.98	462.204	0.062
464.14	462.334	0.062
464.31	462.484	0.062
464.47	462.684	0.062
464.63	462.834	0.062
464.79	462.963	0.061
464.95	463.123	0.061
465.1	463.234	0.062
465.27	463.443	0.061
465.43	463.594	0.062
465.58	463.733	0.061
465.75	463.904	0.062
465.92	464.094	0.062
466.08	464.274	0.062
466.23	464.423	0.061
466.39	464.594	0.062
466.56	464.794	0.062
466.72	464.943	0.061
466.88	465.093	0.061
467.04	465.264	0.062
467.2	465.404	0.062
467.35	465.583	0.061
467.51	465.723	0.061
467.68	465.873	0.061
467.83	466.033	0.061
467.99	466.154	0.062
468.15	466.344	0.062
468.31	466.504	0.062
468.47	466.663	0.061
468.62	466.823	0.061
468.78	467.014	0.062
468.94	467.173	0.061
469.1	467.293	0.061
469.26	467.463	0.061
469.42	467.614	0.062
469.58	467.803	0.061
469.74	467.933	0.061
469.89	468.043	0.061
470.05	468.219	0.067
470.21	468.463	0.061
470.37	468.613	0.061
470.52	468.743	0.061
470.68	468.883	0.061
470.84	469.064	0.062
471	469.243	0.061
471.15	469.393	0.061
471.31	469.533	0.061
471.48	469.693	0.061
471.63	469.873	0.061
471.79	469.993	0.061
471.95	470.117	0.065
472.11	470.303	0.061
472.26	470.433	0.061
472.42	470.623	0.061
472.59	470.793	0.061
472.75	470.893	0.061
472.9	471.063	0.061
473.06	471.274	0.062
473.21	471.453	0.061
473.37	471.573	0.061
473.53	471.713	0.061
473.69	471.923	0.061
473.85	472.123	0.061
474	472.243	0.061
474.16	472.353	0.061
474.32	472.503	0.061
474.48	472.694	0.062
474.63	472.863	0.061
474.79	472.983	0.061
474.95	473.093	0.061
475.11	473.233	0.061
475.27	473.424	0.062
475.42	473.584	0.062
475.58	473.733	0.061
475.74	473.884	0.062
475.89	474.064	0.062
476.05	474.244	0.062
476.22	474.393	0.061
476.38	474.524	0.062
476.53	474.683	0.061
476.7	474.834	0.062
476.86	475.014	0.062
477.02	475.174	0.062
477.18	475.284	0.062
477.34	475.56	0.058
477.49	475.704	0.062
477.65	475.844	0.062
477.81	476.013	0.061
477.97	476.134	0.062
478.13	476.354	0.062
478.29	476.504	0.062
478.45	476.644	0.062
478.6	476.803	0.061
478.76	476.934	0.062
478.92	477.114	0.062
479.08	477.244	0.062
479.23	477.454	0.062
479.4	477.534	0.062
479.56	477.734	0.062
479.73	477.894	0.062
479.89	478.044	0.062
480.04	478.194	0.062
480.21	478.344	0.062
480.36	478.544	0.062
480.52	478.714	0.062
480.68	478.833	0.061
480.83	479.005	0.063
480.99	479.244	0.062
481.15	479.423	0.061
481.32	479.523	0.061
481.47	479.634	0.062
481.63	479.894	0.062
481.8	480.044	0.062
481.95	480.173	0.061
482.11	480.283	0.061
482.28	480.434	0.062
482.43	480.614	0.062
482.59	480.803	0.061
482.75	480.933	0.061
482.92	481.103	0.061
483.08	481.334	0.062
483.25	481.466	0.064
483.4	481.623	0.061
483.57	481.773	0.061
483.73	481.913	0.061
483.89	482.093	0.061
484.05	482.233	0.061
484.21	482.363	0.061
484.37	482.584	0.062
484.52	482.763	0.061
484.68	482.883	0.061
484.84	483.053	0.061
485	483.193	0.061
485.16	483.363	0.061
485.33	483.563	0.061
485.49	483.724	0.062
485.66	483.891	0.059
485.81	484.023	0.061
485.97	484.193	0.061
486.13	484.333	0.061
486.29	484.483	0.061
486.45	484.653	0.061
486.61	484.793	0.061
486.77	484.993	0.061
486.93	485.123	0.061
487.08	485.232	0.06
487.24	485.373	0.061
487.4	485.534	0.062
487.57	485.753	0.061
487.73	485.873	0.061
487.88	486.023	0.061
488.04	486.193	0.061
488.2	486.383	0.061
488.37	486.533	0.061
488.52	486.672	0.06
488.68	486.792	0.06
488.84	486.983	0.061
489	487.153	0.061
489.16	487.343	0.061
489.33	487.452	0.06
489.48	487.562	0.06
489.64	487.723	0.061
489.81	487.933	0.061
489.96	488.082	0.06
490.12	488.242	0.06
490.28	488.373	0.061
490.44	488.603	0.061
490.6	488.742	0.06
490.75	488.862	0.06
490.91	489.002	0.06
491.08	489.193	0.061
491.24	489.382	0.06
491.4	489.512	0.06
491.57	489.643	0.061
491.73	489.983	0.061
491.88	490.102	0.06
492.04	490.252	0.06
492.21	490.412	0.06
492.37	490.662	0.06
492.53	490.782	0.06
492.69	490.932	0.06
492.84	491.062	0.06
493	491.222	0.06
493.17	491.432	0.06
493.33	491.572	0.06
493.5	491.732	0.06
493.66	491.882	0.06
493.81	492.062	0.06
493.97	492.202	0.06
494.13	492.362	0.06
494.29	492.472	0.06
494.44	492.652	0.06
494.61	492.832	0.06
494.77	492.982	0.06
494.93	493.122	0.06
495.08	493.312	0.06
495.24	493.482	0.06
495.4	493.662	0.06
495.56	493.811	0.059
495.72	493.97	0.058
495.89	494.102	0.06
496.05	494.312	0.06
496.21	494.471	0.059
496.38	494.611	0.059
496.53	494.731	0.059
496.69	494.882	0.06
496.86	495.082	0.06
497.01	495.241	0.059
497.17	495.391	0.059
497.34	495.562	0.06
497.5	495.771	0.059
497.66	495.901	0.059
497.82	496.031	0.059
497.98	496.171	0.059
498.13	496.371	0.059
498.29	496.491	0.059
498.45	496.681	0.059
498.6	496.781	0.059
498.76	497.011	0.059
498.92	497.181	0.059
499.07	497.36	0.058
499.23	497.489	0.057
499.39	497.621	0.059
499.54	497.801	0.059
499.71	497.981	0.059
499.87	498.12	0.058
500.03	498.231	0.059
500.19	498.381	0.059
500.35	498.611	0.059
500.5	498.751	0.059
500.66	498.901	0.059
500.82	499.02	0.058
500.98	499.171	0.059
501.13	499.361	0.059
501.29	499.53	0.058
501.45	499.64	0.058
501.6	499.82	0.058
501.76	500.01	0.058
501.92	500.18	0.058
502.08	500.31	0.058
502.24	500.49	0.058
502.41	500.67	0.058
502.58	500.84	0.058
502.73	500.989	0.057
502.9	501.14	0.058
503.06	501.31	0.058
503.21	501.481	0.059
503.38	501.609	0.057
503.55	501.76	0.058
503.7	501.939	0.057
503.86	502.05	0.058
504.02	502.26	0.058
504.18	502.419	0.057
504.34	502.589	0.057
504.5	502.71	0.058
504.67	502.95	0.058
504.83	503.089	0.057
504.99	503.21	0.058
505.14	503.349	0.057
505.3	503.53	0.058
505.46	503.729	0.057
505.61	503.869	0.057
505.77	503.97	0.058
505.93	504.2	0.058
506.09	504.389	0.057
506.25	504.55	0.058
506.42	504.709	0.057
506.57	504.809	0.057
506.73	505.02	0.058
506.89	505.15	0.058
507.05	505.329	0.057
507.2	505.429	0.057
507.36	505.59	0.058
507.52	505.78	0.058
507.68	505.93	0.058
507.83	506.049	0.057
507.99	506.209	0.057
508.15	506.34	0.058
508.31	506.52	0.058
508.47	506.689	0.057
508.63	506.82	0.058
508.79	506.97	0.058
508.94	507.199	0.057
509.1	507.339	0.057
509.26	507.469	0.057
509.43	507.65	0.058
509.59	507.84	0.058
509.75	508.01	0.058
509.91	508.16	0.058
510.07	508.319	0.057
510.24	508.47	0.058
510.4	508.679	0.057
510.56	508.779	0.057
510.71	508.929	0.057
510.87	509.069	0.057
511.03	509.18	0.058
511.2	509.39	0.058
511.36	509.569	0.057
511.52	509.7	0.058
511.68	509.9	0.058
511.83	510.118	0.056
511.99	510.229	0.057
512.16	510.359	0.057
512.32	510.539	0.057
512.48	510.669	0.057
512.64	510.829	0.057
512.8	510.979	0.057
512.96	511.109	0.057
513.11	511.329	0.057
513.27	511.469	0.057
513.43	511.639	0.057
513.59	511.78	0.058
513.74	511.929	0.057
513.9	512.1	0.058
514.06	512.299	0.057
514.22	512.439	0.057
514.38	512.579	0.057
514.53	512.709	0.057
514.69	512.879	0.057
514.86	513.049	0.057
515.02	513.219	0.057
515.17	513.349	0.057
515.34	513.48	0.058
515.5	513.718	0.056
515.65	513.898	0.056
515.81	513.969	0.057
515.97	514.129	0.057
516.14	514.369	0.057
516.3	514.568	0.056
516.46	514.658	0.056
516.62	514.839	0.057
516.78	515.009	0.057
516.94	515.238	0.056
517.1	515.328	0.056
517.26	515.488	0.056
517.43	515.709	0.057
517.59	515.918	0.056
517.75	516.008	0.056
517.91	516.148	0.056
518.07	516.298	0.056
518.23	516.508	0.056
518.38	516.618	0.056
518.54	516.778	0.056
518.7	516.948	0.056
518.85	517.118	0.056
519.01	517.325	0.053
519.17	517.437	0.055
519.33	517.578	0.056
519.5	517.727	0.055
519.66	517.878	0.056
519.82	518.068	0.056
519.99	518.207	0.055
520.14	518.338	0.056
520.31	518.578	0.056
520.47	518.767	0.055
520.63	518.907	0.055
520.79	519.077	0.055
520.95	519.227	0.055
521.11	519.437	0.055
521.27	519.577	0.055
521.44	519.717	0.055
521.6	519.867	0.055
521.76	520.047	0.055
521.92	520.237	0.055
522.08	520.366	0.054
522.24	520.536	0.054
522.4	520.606	0.054
522.56	520.807	0.055
522.72	520.966	0.054
522.88	521.137	0.055
523.04	521.276	0.054
523.21	521.447	0.055
523.36	521.636	0.054
523.52	521.816	0.054
523.68	521.916	0.054
523.84	522.096	0.054
524	522.296	0.054
524.16	522.486	0.054
524.33	522.595	0.053
524.49	522.736	0.054
524.65	522.976	0.054
524.81	523.145	0.053
524.97	523.265	0.053
525.14	523.435	0.053
525.3	523.565	0.053
525.46	523.736	0.054
525.62	523.905	0.053
525.77	524.035	0.053
525.93	524.195	0.053
526.09	524.415	0.053
526.25	524.564	0.052
526.4	524.694	0.052
526.57	524.864	0.052
526.72	524.975	0.053
526.88	525.185	0.053
527.04	525.354	0.052
527.2	525.474	0.052
527.35	525.655	0.053
527.52	525.854	0.052
527.68	526.014	0.052
527.83	526.164	0.052
527.99	526.324	0.052
528.15	526.494	0.052
528.32	526.674	0.052
528.49	526.834	0.052
528.64	526.964	0.052
528.81	527.114	0.052
528.96	527.324	0.052
529.12	527.473	0.051
529.29	527.603	0.051
529.45	527.753	0.051
529.61	527.934	0.052
529.76	528.093	0.051
529.92	528.243	0.051
530.08	528.353	0.051
530.24	528.503	0.051
530.4	528.714	0.052
530.57	528.903	0.051
530.72	529.013	0.051
530.89	529.204	0.052
531.05	529.403	0.051
531.21	529.572	0.05
531.37	529.702	0.05
531.53	529.882	0.05
531.69	529.993	0.051
531.85	530.213	0.051
532.01	530.322	0.05
532.17	530.452	0.05
532.33	530.572	0.05
532.49	530.723	0.051
532.64	530.932	0.05
532.8	531.092	0.05
532.96	531.232	0.05
533.13	531.402	0.05
533.28	531.612	0.05
533.44	531.762	0.05
533.6	531.872	0.05
533.76	532.052	0.05
533.92	532.162	0.05
534.08	532.373	0.051
534.25	532.542	0.05
534.41	532.662	0.05
534.57	532.844	0.052
534.73	533.09	0.048
534.9	533.202	0.05
535.06	533.342	0.05
535.21	533.482	0.05
535.38	533.692	0.05
535.54	533.872	0.05
535.71	534.022	0.05
535.87	534.152	0.05
536.03	534.322	0.05
536.2	534.512	0.05
536.36	534.641	0.049
536.53	534.792	0.05
536.69	534.951	0.049
536.86	535.122	0.05
537.02	535.292	0.05
537.18	535.482	0.05
537.35	535.651	0.049
537.51	535.812	0.05
537.68	536.002	0.05
537.84	536.151	0.049
538	536.282	0.05
538.15	536.471	0.049
538.32	536.632	0.05
538.48	536.811	0.049
538.64	536.941	0.049
538.81	537.091	0.049
538.97	537.222	0.05
539.13	537.432	0.05
539.28	537.571	0.049
539.45	537.721	0.049
539.61	537.841	0.049
539.78	538.042	0.05
539.93	538.221	0.049
540.1	538.383	0.051
540.26	538.551	0.049
540.43	538.721	0.049
540.6	538.928	0.046
540.76	539.081	0.049
540.92	539.231	0.049
541.08	539.331	0.049
541.24	539.531	0.049
541.39	539.672	0.05
541.55	539.821	0.049
541.72	539.912	0.05
541.88	540.212	0.05
542.04	540.431	0.049
542.19	540.511	0.049
542.36	540.661	0.049
542.53	540.852	0.05
542.69	541.091	0.049
542.85	541.191	0.049
543.01	541.322	0.05
543.17	541.492	0.05
543.33	541.732	0.05
543.5	541.861	0.049
543.66	542.012	0.05
543.82	542.141	0.049
543.98	542.322	0.05
544.13	542.472	0.05
544.3	542.632	0.05
544.46	542.752	0.05
544.63	542.932	0.05
544.78	543.113	0.051
544.94	543.272	0.05
545.1	543.412	0.05
545.25	543.582	0.05
545.41	543.732	0.05
545.57	543.872	0.05
545.73	544.052	0.05
545.89	544.222	0.05
546.05	544.412	0.05
546.21	544.562	0.05
546.37	544.731	0.049
546.53	544.852	0.05
546.69	545.021	0.049
546.86	545.142	0.05
547.02	545.332	0.05
547.18	545.491	0.049
547.34	545.681	0.049
547.5	545.771	0.049
547.66	545.962	0.05
547.82	546.121	0.049
547.97	546.241	0.049
548.14	546.401	0.049
548.31	546.572	0.05
548.47	546.781	0.049
548.64	546.911	0.049
548.79	547.06	0.048
548.95	547.252	0.05
549.11	547.461	0.049
549.27	547.601	0.049
549.43	547.8	0.048
549.6	547.911	0.049
549.76	548.111	0.049
549.92	548.291	0.049
550.08	548.43	0.048
550.24	548.571	0.049
550.41	548.741	0.049
550.57	548.95	0.048
550.74	549.091	0.049
550.89	549.251	0.049
551.05	549.361	0.049
551.22	549.532	0.05
551.37	549.711	0.049
551.53	549.852	0.05
551.69	550.011	0.049
551.85	550.231	0.049
552.01	550.39	0.048
552.18	550.56	0.048
552.34	550.741	0.049
552.51	550.96	0.048
552.67	551.08	0.048
552.83	551.23	0.048
552.99	551.36	0.048
553.15	551.53	0.048
553.31	551.73	0.048
553.47	551.853	0.051
553.62	552.02	0.048
553.79	552.18	0.048
553.94	552.37	0.048
554.1	552.51	0.048
554.26	552.65	0.048
554.42	552.8	0.048
554.57	553.01	0.048
554.74	553.18	0.048
554.9	553.329	0.047
555.05	553.439	0.047
555.21	553.609	0.047
555.37	553.729	0.047
555.53	553.88	0.048
555.68	554.029	0.047
555.85	554.19	0.048
556	554.39	0.048
556.17	554.61	0.048
556.33	554.779	0.047
556.5	554.919	0.047
556.67	555.059	0.047
556.82	555.269	0.047
556.98	555.429	0.047
557.14	555.559	0.047
557.3	555.689	0.047
557.46	555.859	0.047
557.63	556.039	0.047
557.79	556.179	0.047
557.95	556.329	0.047
558.11	556.468	0.046
558.27	556.609	0.047
558.42	556.799	0.047
558.59	556.989	0.047
558.75	557.089	0.047
558.91	557.269	0.047
559.07	557.469	0.047
559.24	557.658	0.046
559.4	557.778	0.046
559.56	557.929	0.047
559.72	558.088	0.046
559.87	558.289	0.047
560.03	558.388	0.046
560.19	558.488	0.046
560.35	558.669	0.047
560.52	558.909	0.047
560.68	559.038	0.046
560.85	559.198	0.046
561.01	559.348	0.046
561.17	559.489	0.047
561.32	559.688	0.046
561.48	559.828	0.046
561.64	559.959	0.047
561.79	560.158	0.046
561.95	560.319	0.047
562.11	560.459	0.047
562.26	560.608	0.046
562.43	560.788	0.046
562.6	560.928	0.046
562.75	561.098	0.046
562.92	561.239	0.047
563.07	561.378	0.046
563.23	561.619	0.047
563.39	561.808	0.046
563.55	561.948	0.046
563.72	562.108	0.046
563.89	562.258	0.046
564.04	562.458	0.046
564.21	562.618	0.046
564.37	562.767	0.045
564.52	562.889	0.047
564.68	563.038	0.046
564.84	563.268	0.046
565	563.397	0.045
565.15	563.508	0.046
565.31	563.677	0.045
565.47	563.828	0.046
565.62	564.019	0.047
565.78	564.138	0.046
565.94	564.357	0.045
566.1	564.429	0.047
566.26	564.698	0.046
566.43	564.838	0.046
566.59	564.997	0.045
566.75	565.158	0.046
566.9	565.368	0.046
567.06	565.518	0.046
567.22	565.657	0.045
567.38	565.797	0.045
567.53	565.958	0.046
567.69	566.168	0.046
567.85	566.307	0.045
568.01	566.428	0.046
568.17	566.577	0.045
568.32	566.728	0.046
568.49	566.938	0.046
568.65	567.067	0.045
568.82	567.238	0.046
568.98	567.418	0.046
569.14	567.617	0.045
569.31	567.737	0.045
569.48	567.848	0.046
569.63	568.008	0.046
569.79	568.228	0.046
569.95	568.345	0.043
570.11	568.478	0.046
570.27	568.618	0.046
570.43	568.898	0.046
570.59	569.018	0.046
570.75	569.188	0.046
570.91	569.348	0.046
571.07	569.538	0.046
571.23	569.688	0.046
571.39	569.828	0.046
571.55	569.978	0.046
571.71	570.138	0.046
571.88	570.328	0.046
572.04	570.498	0.046
572.19	570.627	0.045
572.35	570.779	0.047
572.51	570.898	0.046
572.67	571.068	0.046
572.83	571.228	0.046
572.99	571.312	0.05
573.15	571.538	0.046
573.32	571.658	0.046
573.48	571.878	0.046
573.64	572.008	0.046
573.8	572.158	0.046
573.96	572.328	0.046
574.11	572.508	0.046
574.27	572.648	0.046
574.43	572.818	0.046
574.59	572.948	0.046
574.75	573.128	0.046
574.91	573.318	0.046
575.07	573.458	0.046
575.22	573.578	0.046
575.38	573.738	0.046
575.53	573.928	0.046
575.69	574.088	0.046
575.86	574.227	0.045
576.01	574.379	0.047
576.17	574.539	0.047
576.34	574.778	0.046
576.5	574.897	0.045
576.67	575.038	0.046
576.83	575.208	0.046
576.99	575.398	0.046
577.15	575.521	0.049
577.31	575.687	0.045
577.46	575.799	0.047
577.63	576.118	0.046
577.79	576.267	0.045
577.94	576.397	0.045
578.1	576.557	0.045
578.26	576.758	0.046
578.42	576.927	0.045
578.58	577.077	0.045
578.74	577.188	0.046
578.89	577.348	0.046
579.06	577.538	0.046
579.21	577.707	0.045
579.37	577.808	0.046
579.53	578.006	0.044
579.68	578.148	0.046
579.84	578.338	0.046
580	578.487	0.045
580.16	578.617	0.045
580.32	578.767	0.045
580.47	578.968	0.046
580.63	579.137	0.045
580.79	579.277	0.045
580.94	579.457	0.045
581.1	579.597	0.045
581.26	579.767	0.045
581.42	579.887	0.045
581.57	580.037	0.045
581.73	580.167	0.045
581.89	580.378	0.046
582.05	580.547	0.045
582.2	580.677	0.045
582.37	580.857	0.045
582.53	580.967	0.045
582.69	581.177	0.045
582.85	581.317	0.045
583	581.487	0.045
583.16	581.607	0.045
583.32	581.827	0.045
583.47	581.967	0.045
583.63	582.107	0.045
583.8	582.267	0.045
583.96	582.357	0.045
584.12	582.607	0.045
584.28	582.777	0.045
584.44	582.896	0.044
584.6	583.087	0.045
584.76	583.287	0.045
584.92	583.446	0.044
585.08	583.566	0.044
585.24	583.716	0.044
585.39	583.877	0.045
585.55	584.037	0.045
585.71	584.176	0.044
585.86	584.306	0.044
586.02	584.466	0.044
586.18	584.628	0.046
586.34	584.816	0.044
586.5	584.946	0.044
586.66	585.077	0.045
586.82	585.237	0.045
586.97	585.466	0.044
587.13	585.586	0.044
587.29	585.726	0.044
587.45	585.896	0.044
587.61	586.076	0.044
587.77	586.236	0.044
587.93	586.386	0.044
588.09	586.516	0.044
588.24	586.716	0.044
588.4	586.877	0.045
588.56	587.046	0.044
588.71	587.186	0.044
588.87	587.336	0.044
589.03	587.516	0.044
589.2	587.677	0.045
589.36	587.836	0.044
589.52	587.957	0.045
589.68	588.106	0.044
589.83	588.296	0.044
589.99	588.476	0.044
590.15	588.606	0.044
590.31	588.756	0.044
590.47	588.956	0.044
590.63	589.146	0.044
590.79	589.258	0.046
590.94	589.446	0.044
591.1	589.566	0.044
591.27	589.776	0.044
591.43	589.906	0.044
591.58	590.056	0.044
591.74	590.256	0.044
591.9	590.456	0.044
592.06	590.606	0.044
592.21	590.766	0.044
592.37	590.895	0.043
592.53	591.086	0.044
592.69	591.226	0.044
592.85	591.416	0.044
593	591.545	0.043
593.16	591.666	0.044
593.32	591.846	0.044
593.47	591.996	0.044
593.64	592.146	0.044
593.8	592.237	0.045
593.96	592.406	0.044
594.11	592.617	0.045
594.28	592.796	0.044
594.44	592.926	0.044
594.6	593.076	0.044
594.76	593.286	0.044
594.92	593.446	0.044
595.07	593.596	0.044
595.23	593.706	0.044
595.39	593.906	0.044
595.55	594.096	0.044
595.7	594.236	0.044
595.86	594.376	0.044
596.02	594.546	0.044
596.18	594.727	0.045
596.33	594.876	0.044
596.49	595.026	0.044
596.65	595.206	0.044
596.81	595.286	0.044
596.96	595.477	0.045
597.13	595.646	0.044
597.28	595.786	0.044
597.44	595.956	0.044
597.6	596.136	0.044
597.75	596.267	0.045
597.91	596.406	0.044
598.07	596.527	0.045
598.23	596.686	0.044
598.39	596.827	0.045
598.54	596.987	0.045
598.7	597.127	0.045
598.86	597.267	0.045
599.02	597.497	0.045
599.18	597.687	0.045
599.34	597.847	0.045
599.5	598.007	0.045
599.65	598.117	0.045
599.81	598.347	0.045
599.97	598.487	0.045
600.13	598.627	0.045
600.29	598.767	0.045
600.45	598.918	0.046
600.61	599.117	0.045
600.77	599.257	0.045
600.93	599.386	0.044
601.08	599.527	0.045
601.24	599.737	0.045
601.4	599.878	0.046
601.56	600.047	0.045
601.72	600.197	0.045
601.89	600.397	0.045
602.05	600.548	0.046
602.21	600.717	0.045
602.36	600.827	0.045
602.52	601.017	0.045
602.68	601.178	0.046
602.83	601.367	0.045
602.99	601.497	0.045
603.16	601.647	0.045
603.32	601.838	0.046
603.47	602.027	0.045
603.64	602.178	0.046
603.8	602.316	0.044
603.96	602.438	0.046
604.11	602.648	0.046
604.27	602.809	0.047
604.43	602.958	0.046
604.59	603.092	0.05
604.74	603.318	0.046
604.9	603.458	0.046
605.06	603.607	0.045
605.22	603.777	0.045
605.37	603.868	0.046
605.53	604.038	0.046
605.69	604.198	0.046
605.85	604.337	0.045
606	604.468	0.046
606.16	604.708	0.046
606.32	604.877	0.045
606.48	605.028	0.046
606.64	605.179	0.047
606.79	605.337	0.045
606.95	605.509	0.047
607.11	605.687	0.045
607.27	605.827	0.045
607.42	605.967	0.045
607.58	606.128	0.046
607.74	606.317	0.045
607.89	606.417	0.045
608.05	606.567	0.045
608.21	606.697	0.045
608.37	606.908	0.046
608.53	607.077	0.045
608.68	607.207	0.045
608.84	607.376	0.044
609	607.508	0.046
609.16	607.727	0.045
609.32	607.867	0.045
609.48	607.997	0.045
609.64	608.157	0.045
609.79	608.367	0.045
609.95	608.507	0.045
610.11	608.658	0.046
610.27	608.787	0.045
610.42	608.939	0.047
610.59	609.157	0.045
610.75	609.317	0.045
610.91	609.437	0.045
611.07	609.557	0.045
611.22	609.717	0.045
611.38	609.907	0.045
611.54	610.047	0.045
611.7	610.237	0.045
611.86	610.377	0.045
612.02	610.577	0.045
612.18	610.677	0.045
612.33	610.836	0.044
612.49	610.997	0.045
612.65	611.197	0.045
612.8	611.327	0.045
612.96	611.467	0.045
613.12	611.588	0.046
613.28	611.847	0.045
613.43	612.007	0.045
613.59	612.147	0.045
613.75	612.287	0.045
613.92	612.477	0.045
614.07	612.656	0.044
614.23	612.797	0.045
614.39	612.937	0.045
614.55	613.067	0.045
614.71	613.237	0.045
614.87	613.437	0.045
615.03	613.576	0.044
615.18	613.727	0.045
615.34	613.896	0.044
615.5	614.056	0.044
615.66	614.226	0.044
615.82	614.366	0.044
615.97	614.537	0.045
616.13	614.687	0.045
616.29	614.896	0.044
616.45	615.046	0.044
616.6	615.186	0.044
616.76	615.366	0.044
616.92	615.537	0.045
617.08	615.676	0.044
617.24	615.856	0.044
617.4	615.967	0.045
617.56	616.186	0.044
617.72	616.337	0.045
617.88	616.486	0.044
618.04	616.635	0.043
618.19	616.756	0.044
618.35	616.937	0.045
618.52	617.097	0.045
618.67	617.275	0.043
618.83	617.425	0.043
618.99	617.577	0.045
619.14	617.756	0.044
619.3	617.915	0.043
619.46	618.055	0.043
619.62	618.185	0.043
619.78	618.336	0.044
619.94	618.555	0.043
620.09	618.675	0.043
620.25	618.796	0.044
620.41	619.035	0.043
620.57	619.225	0.043
620.72	619.326	0.044
620.88	619.516	0.044
621.04	619.645	0.043
621.19	619.855	0.043
621.35	619.966	0.044
621.51	620.135	0.043
621.67	620.296	0.044
621.83	620.445	0.043
621.99	620.606	0.044
622.14	620.746	0.044
622.3	620.886	0.044
622.47	621.065	0.043
622.63	621.236	0.044
622.78	621.415	0.043
622.94	621.564	0.042
623.1	621.704	0.042
623.25	621.865	0.043
623.41	622.035	0.043
623.57	622.185	0.043
623.73	622.324	0.042
623.88	622.524	0.042
624.04	622.665	0.043
624.2	622.854	0.042
624.35	622.983	0.041
624.52	623.144	0.042
624.68	623.245	0.043
624.84	623.495	0.043
625	623.644	0.042
625.17	623.795	0.043
625.32	623.915	0.043
625.48	624.084	0.042
625.65	624.265	0.043
625.81	624.454	0.042
625.96	624.604	0.042
626.12	624.725	0.043
626.28	624.934	0.042
626.44	625.054	0.042
626.6	625.194	0.042
626.75	625.335	0.043
626.91	625.525	0.043
627.07	625.711	0.039
627.22	625.825	0.043
627.38	625.964	0.042
627.54	626.204	0.042
627.69	626.374	0.042
627.85	626.524	0.042
628.01	626.714	0.042
628.17	626.844	0.042
628.33	627.014	0.042
628.5	627.203	0.041
628.66	627.324	0.042
628.82	627.475	0.043
628.98	627.644	0.042
629.14	627.834	0.042
629.3	627.973	0.041
629.45	628.104	0.042
629.61	628.244	0.042
629.77	628.445	0.043
629.93	628.614	0.042
630.08	628.754	0.042
630.24	628.895	0.043
630.41	629.074	0.042
630.57	629.244	0.042
630.72	629.384	0.042
630.88	629.505	0.043
631.04	629.684	0.042
631.2	629.834	0.042
631.35	630.014	0.042
631.51	630.174	0.042
631.67	630.323	0.041
631.82	630.444	0.042
631.98	630.675	0.043
632.14	630.824	0.042
632.3	630.934	0.042
632.46	631.084	0.042
632.61	631.244	0.042
632.77	631.424	0.042
632.93	631.573	0.041
633.09	631.694	0.042
633.25	631.844	0.042
633.4	632.016	0.044
633.56	632.194	0.042
633.72	632.323	0.041
633.88	632.494	0.042
634.04	632.635	0.043
634.19	632.795	0.043
634.35	632.963	0.041
634.51	633.123	0.041
634.67	633.305	0.043
634.83	633.504	0.042
634.99	633.663	0.041
635.16	633.813	0.041
635.31	633.944	0.042
635.47	634.144	0.042
635.63	634.313	0.041
635.78	634.444	0.042
635.94	634.574	0.042
636.1	634.714	0.042
636.26	634.953	0.041
636.42	635.074	0.042
636.57	635.203	0.041
636.73	635.353	0.041
636.89	635.504	0.042
637.05	635.733	0.041
637.21	635.854	0.042
637.36	635.983	0.041
637.53	636.154	0.042
637.68	636.385	0.043
637.84	636.514	0.042
638	636.654	0.042
638.16	636.844	0.042
638.31	637.033	0.041
638.47	637.153	0.041
638.64	637.313	0.041
638.79	637.433	0.041
638.95	637.613	0.041
639.11	637.823	0.041
639.27	637.963	0.041
639.42	638.104	0.042
639.58	638.273	0.041
639.75	638.433	0.041
639.9	638.574	0.042
640.06	638.753	0.041
640.22	638.874	0.042
640.38	639.063	0.041
640.53	639.253	0.041
640.69	639.383	0.041
640.85	639.504	0.042
641.01	639.703	0.041
641.17	639.833	0.041
641.34	640.004	0.042
641.5	640.173	0.041
641.66	640.313	0.041
641.82	640.523	0.041
641.98	640.714	0.042
642.13	640.872	0.04
642.3	641.063	0.041
642.46	641.182	0.04
642.62	641.372	0.04
642.78	641.522	0.04
642.94	641.672	0.04
643.1	641.832	0.04
643.26	641.962	0.04
643.43	642.162	0.04
643.59	642.322	0.04
643.75	642.452	0.04
643.91	642.592	0.04
644.07	642.793	0.041
644.22	642.932	0.04
644.38	643.112	0.04
644.54	643.233	0.041
644.69	643.413	0.041
644.85	643.563	0.041
645.01	643.761	0.039
645.17	643.871	0.039
645.33	644.062	0.04
645.48	644.193	0.041
645.64	644.382	0.04
645.81	644.501	0.039
645.97	644.672	0.04
646.12	644.822	0.04
646.28	645.033	0.041
646.44	645.181	0.039
646.6	645.331	0.039
646.76	645.471	0.039
646.92	645.672	0.04
647.08	645.831	0.039
647.23	645.981	0.039
647.39	646.131	0.039
647.54	646.272	0.04
647.7	646.451	0.039
647.86	646.591	0.039
648.02	646.731	0.039
648.18	646.891	0.039
648.33	647.061	0.039
648.49	647.202	0.04
648.65	647.351	0.039
648.82	647.473	0.041
648.98	647.731	0.039
649.13	647.882	0.04
649.29	648.051	0.039
649.45	648.231	0.039
649.61	648.352	0.04
649.78	648.552	0.04
649.94	648.731	0.039
650.1	648.871	0.039
650.25	649.02	0.038
650.41	649.142	0.04
650.57	649.342	0.04
650.72	649.481	0.039
650.88	649.652	0.04
651.04	649.772	0.04
651.2	649.991	0.039
651.35	650.141	0.039
651.51	650.321	0.039
651.67	650.46	0.038
651.83	650.612	0.04
651.98	650.781	0.039
652.14	650.951	0.039
652.3	651.08	0.038
652.46	651.261	0.039
652.61	651.43	0.038
652.77	651.581	0.039
652.93	651.711	0.039
653.09	651.86	0.038
653.24	652.041	0.039
653.4	652.26	0.038
653.56	652.371	0.039
653.72	652.53	0.038
653.88	652.661	0.039
654.04	652.88	0.038
654.21	653.031	0.039
654.36	653.19	0.038
654.52	653.33	0.038
654.68	653.53	0.038
654.84	653.68	0.038
655	653.83	0.038
655.16	653.96	0.038
655.32	654.091	0.039
655.48	654.301	0.039
655.64	654.46	0.038
655.8	654.61	0.038
655.96	654.731	0.039
656.11	654.96	0.038
656.27	655.13	0.038
656.43	655.289	0.037
656.58	655.439	0.037
656.74	655.599	0.037
656.9	655.759	0.037
657.06	655.9	0.038
657.22	656.049	0.037
657.38	656.209	0.037
657.53	656.35	0.038
657.69	656.549	0.037
657.86	656.68	0.038
658.02	656.83	0.038
658.18	656.969	0.037
658.33	657.16	0.038
658.49	657.31	0.038
658.66	657.459	0.037
658.82	657.6	0.038
658.98	657.769	0.037
659.13	657.96	0.038
659.29	658.099	0.037
659.46	658.229	0.037
659.61	658.38	0.038
659.77	658.589	0.037
659.93	658.759	0.037
660.09	658.908	0.036
660.25	659.029	0.037
660.4	659.2	0.038
660.56	659.389	0.037
660.72	659.539	0.037
660.88	659.688	0.036
661.04	659.808	0.036
661.19	659.96	0.038
661.35	660.129	0.037
661.51	660.309	0.037
661.67	660.479	0.037
661.83	660.599	0.037
661.99	660.78	0.038
662.14	660.958	0.036
662.3	661.06	0.038
662.46	661.229	0.037
662.62	661.379	0.037
662.78	661.589	0.037
662.94	661.709	0.037
663.1	661.86	0.038
663.25	662.09	0.038
663.41	662.278	0.036
663.57	662.418	0.036
663.73	662.599	0.037
663.88	662.72	0.038
664.04	662.92	0.038
664.2	663.069	0.037
664.36	663.208	0.036
664.52	663.379	0.037
664.68	663.54	0.038
664.84	663.688	0.036
665	663.839	0.037
665.16	663.989	0.037
665.32	664.14	0.038
665.47	664.33	0.038
665.63	664.489	0.037
665.8	664.639	0.037
665.96	664.799	0.037
666.12	664.959	0.037
666.27	665.149	0.037
666.43	665.279	0.037
666.59	665.419	0.037
666.75	665.598	0.036
666.9	665.74	0.038
667.06	665.9	0.038
667.22	666.076	0.034
667.38	666.218	0.036
667.54	666.369	0.037
667.69	666.579	0.037
667.85	666.719	0.037
668.01	666.87	0.038
668.17	666.998	0.036
668.33	667.15	0.038
668.48	667.32	0.038
668.64	667.48	0.038
668.8	667.618	0.036
668.95	667.769	0.037
669.11	667.969	0.037
669.31	668.149	0.037
669.46	668.25	0.038
669.62	668.419	0.037
669.78	668.639	0.037
669.94	668.789	0.037
670.1	668.928	0.036
670.25	669.069	0.037
670.41	669.289	0.037
670.57	669.469	0.037
670.73	669.609	0.037
670.89	669.769	0.037
671.04	669.899	0.037
671.2	670.088	0.036
671.36	670.229	0.037
671.52	670.348	0.036
671.68	670.498	0.036
671.83	670.658	0.036
671.99	670.868	0.036
672.15	670.998	0.036
672.31	671.119	0.037
672.47	671.288	0.036
672.62	671.518	0.036
672.78	671.629	0.037
672.94	671.788	0.036
673.1	671.959	0.037
673.26	672.109	0.037
673.42	672.288	0.036
673.57	672.448	0.036
673.73	672.615	0.033
673.89	672.778	0.036
674.05	672.929	0.037
674.21	673.108	0.036
674.37	673.248	0.036
674.53	673.398	0.036
674.69	673.569	0.037
674.84	673.768	0.036
675	673.908	0.036
675.16	674.048	0.036
675.32	674.208	0.036
675.48	674.388	0.036
675.64	674.539	0.037
675.79	674.689	0.037
675.95	674.868	0.036
676.11	674.998	0.036
676.27	675.179	0.037
676.43	675.328	0.036
676.58	675.538	0.036
676.74	675.599	0.037
676.9	675.808	0.036
677.06	675.969	0.037
677.21	676.157	0.035
677.37	676.328	0.036
677.53	676.489	0.037
677.69	676.658	0.036
677.84	676.827	0.035
678	676.948	0.036
678.16	677.099	0.037
678.32	677.289	0.037
678.48	677.457	0.035
678.64	677.588	0.036
678.8	677.728	0.036
678.96	677.889	0.037
679.13	678.088	0.036
679.28	678.237	0.035
679.44	678.398	0.036
679.6	678.518	0.036
679.75	678.718	0.036
679.91	678.859	0.037
680.08	679.018	0.036
680.24	679.177	0.035
680.4	679.34	0.038
680.56	679.518	0.036
680.71	679.668	0.036
680.87	679.799	0.037
681.03	679.988	0.036
681.18	680.158	0.036
681.34	680.308	0.036
681.5	680.458	0.036
681.66	680.589	0.037
681.82	680.769	0.037
681.98	680.949	0.037
682.14	681.088	0.036
682.29	681.238	0.036
682.45	681.397	0.035
682.61	681.568	0.036
682.76	681.728	0.036
682.92	681.887	0.035
683.08	682.018	0.036
683.24	682.188	0.036
683.4	682.387	0.035
683.56	682.527	0.035
683.72	682.708	0.036
683.88	682.807	0.035
684.03	682.958	0.036
684.19	683.127	0.035
684.36	683.257	0.035
684.52	683.408	0.036
684.68	683.599	0.037
684.84	683.788	0.036
685	683.928	0.036
685.16	684.108	0.036
685.32	684.228	0.036
685.48	684.418	0.036
685.64	684.578	0.036
685.81	684.738	0.036
685.97	684.888	0.036
686.13	685.048	0.036
686.28	685.208	0.036
686.44	685.357	0.035
686.61	685.517	0.035
686.77	685.629	0.037
686.93	685.877	0.035
687.09	686.017	0.035
687.24	686.158	0.036
687.4	686.307	0.035
687.56	686.517	0.035
687.71	686.647	0.035
687.87	686.827	0.035
688.03	686.947	0.035
688.19	687.128	0.036
688.35	687.317	0.035
688.51	687.487	0.035
688.68	687.617	0.035
688.83	687.767	0.035
688.99	687.987	0.035
689.16	688.148	0.036
689.32	688.307	0.035
689.47	688.476	0.034
689.63	688.597	0.035
689.79	688.787	0.035
689.94	688.947	0.035
690.1	689.077	0.035
690.27	689.237	0.035
690.42	689.397	0.035
690.58	689.548	0.036
690.75	689.717	0.035
690.91	689.887	0.035
691.07	690.007	0.035
691.23	690.206	0.034
691.39	690.347	0.035
691.55	690.507	0.035
691.71	690.687	0.035
691.87	690.866	0.034
692.03	691.036	0.034
692.18	691.177	0.035
692.34	691.317	0.035
692.5	691.487	0.035
692.65	691.657	0.035
692.81	691.797	0.035
692.97	691.947	0.035
693.13	692.087	0.035
693.28	692.296	0.034
693.44	692.447	0.035
693.6	692.586	0.034
693.76	692.746	0.034
693.92	692.887	0.035
694.08	693.096	0.034
694.23	693.236	0.034
694.39	693.385	0.033
694.56	693.536	0.034
694.71	693.736	0.034
694.87	693.876	0.034
695.03	694.026	0.034
695.19	694.176	0.034
695.35	694.366	0.034
695.52	694.536	0.034
695.68	694.696	0.034
695.85	694.854	0.032
696.01	694.996	0.034
696.17	695.205	0.033
696.32	695.394	0.032
696.48	695.494	0.032
696.64	695.664	0.032
696.8	695.755	0.033
696.96	695.945	0.033
697.12	696.095	0.033
697.28	696.244	0.032
697.43	696.385	0.033
697.59	696.595	0.033
697.75	696.744	0.032
697.9	696.903	0.031
698.06	697.084	0.032
698.23	697.175	0.033
698.39	697.394	0.032
698.54	697.533	0.031
698.7	697.674	0.032
698.86	697.874	0.032
699.01	698.074	0.032
699.17	698.204	0.032
699.33	698.364	0.032
699.49	698.522	0.03
699.64	698.732	0.03
699.81	698.863	0.031
699.97	699.013	0.031
700.13	699.144	0.032
700.29	699.343	0.031
700.44	699.502	0.03
700.6	699.663	0.031
700.76	699.813	0.031
700.92	699.963	0.031
701.08	700.132	0.03
701.23	700.323	0.031
701.4	700.483	0.031
701.56	700.672	0.03
701.72	700.783	0.031
701.88	700.983	0.031
702.04	701.142	0.03
702.2	701.302	0.03
702.36	701.462	0.03
702.51	701.661	0.029
702.68	701.811	0.029
702.84	701.982	0.03
703	702.112	0.03
703.16	702.282	0.03
703.32	702.462	0.03
703.48	702.642	0.03
703.64	702.781	0.029
703.8	702.892	0.03
703.96	703.092	0.03
704.12	703.242	0.03
704.28	703.411	0.029
704.45	703.571	0.029
704.61	703.722	0.03
704.77	703.911	0.029
704.92	704.07	0.028
705.08	704.201	0.029
705.24	704.341	0.029
705.4	704.55	0.028
705.56	704.701	0.029
705.72	704.851	0.029
705.88	705.021	0.029
706.04	705.21	0.028
706.19	705.353	0.031
706.35	705.521	0.029
706.51	705.69	0.028
706.66	705.831	0.029
706.82	706.03	0.028
706.98	706.16	0.028
707.14	706.31	0.028
707.3	706.47	0.028
707.46	706.64	0.028
707.62	706.808	0.026
707.77	706.941	0.029
707.93	707.149	0.027
708.09	707.27	0.028
708.25	707.43	0.028
708.4	707.589	0.027
708.56	707.71	0.028
708.72	707.889	0.027
708.88	708.019	0.027
709.03	708.189	0.027
709.19	708.339	0.027
709.35	708.489	0.027
709.51	708.64	0.028
709.66	708.809	0.027
709.83	708.99	0.028
709.99	709.129	0.027
710.15	709.29	0.028
710.32	709.469	0.027
710.47	709.659	0.027
710.63	709.818	0.026
710.79	709.94	0.028
710.96	710.08	0.028
711.12	710.28	0.028
711.28	710.458	0.026
711.43	710.599	0.027
711.59	710.758	0.026
711.75	710.909	0.027
711.91	711.089	0.027
712.07	711.247	0.025
712.23	711.369	0.027
712.39	711.518	0.026
712.55	711.718	0.026
712.72	711.869	0.027
712.88	712.038	0.026
713.04	712.188	0.026
713.2	712.379	0.027
713.36	712.569	0.027
713.53	712.701	0.029
713.69	712.888	0.026
713.86	713.078	0.026
714.02	713.238	0.026
714.18	713.379	0.027
714.33	713.538	0.026
714.49	713.678	0.026
714.65	713.888	0.026
714.81	714.019	0.027
714.97	714.179	0.027
715.13	714.338	0.026
715.29	714.528	0.026
715.45	714.679	0.027
715.6	714.838	0.026
715.76	714.959	0.027
715.92	715.109	0.027
716.08	715.279	0.027
716.24	715.439	0.027
716.41	715.589	0.027
716.57	715.739	0.027
716.72	715.918	0.026
716.88	716.088	0.026
717.04	716.239	0.027
717.2	716.398	0.026
717.37	716.549	0.027
717.53	716.768	0.026
717.7	716.928	0.026
717.87	717.069	0.027
718.02	717.237	0.025
718.19	717.398	0.026
718.36	717.568	0.026
718.51	717.709	0.027
718.68	717.868	0.026
718.83	718.019	0.027
718.99	718.209	0.027
719.16	718.378	0.026
719.32	718.519	0.027
719.49	718.668	0.026
719.65	718.848	0.026
719.81	719.009	0.027
719.97	719.168	0.026
720.13	719.309	0.027
720.29	719.508	0.026
720.46	719.699	0.027
720.61	719.848	0.026
720.78	720.007	0.025
720.93	720.138	0.026
721.09	720.299	0.027
721.26	720.468	0.026
721.42	720.627	0.025
721.58	720.732	0.03
721.74	720.899	0.027
721.89	721.069	0.027
722.06	721.257	0.025
722.22	721.398	0.026
722.39	721.537	0.025
722.55	721.698	0.026
722.71	721.888	0.026
722.87	722.038	0.026
723.03	722.178	0.026
723.18	722.367	0.025
723.34	722.547	0.025
723.51	722.678	0.026
723.67	722.847	0.025
723.84	723.008	0.026
724	723.207	0.025
724.16	723.328	0.026
724.33	723.488	0.026
724.49	723.658	0.026
724.66	723.868	0.026
724.82	724.028	0.026
724.98	724.197	0.025
725.13	724.328	0.026
725.29	724.458	0.026
725.45	724.677	0.025
725.61	724.828	0.026
725.77	724.977	0.025
725.93	725.118	0.026
726.08	725.278	0.026
726.24	725.448	0.026
726.41	725.617	0.025
726.57	725.776	0.024
726.72	725.917	0.025
726.88	726.098	0.026
727.04	726.267	0.025
727.2	726.427	0.025
727.36	726.607	0.025
727.52	726.796	0.024
727.67	726.956	0.024
727.83	727.097	0.025
727.99	727.256	0.024
728.15	727.407	0.025
728.32	727.597	0.025
728.49	727.747	0.025
728.65	727.926	0.024
728.81	728.056	0.024
728.97	728.246	0.024
729.12	728.395	0.023
729.29	728.566	0.024
729.46	728.715	0.023
729.61	728.896	0.024
729.77	729.055	0.023
729.93	729.216	0.024
730.09	729.355	0.023
730.24	729.496	0.024
730.41	729.695	0.023
730.57	729.865	0.023
730.74	730.015	0.023
730.89	730.166	0.024
731.05	730.336	0.024
731.22	730.536	0.024
731.37	730.656	0.024
731.54	730.845	0.023
731.71	731.015	0.023
731.86	731.196	0.024
732.02	731.345	0.023
732.18	731.485	0.023
732.34	731.615	0.023
732.5	731.815	0.023
732.67	731.966	0.024
732.84	732.135	0.023
732.99	732.304	0.022
733.16	732.465	0.023
733.32	732.635	0.023
733.47	732.795	0.023
733.63	732.934	0.022
733.78	733.074	0.022
733.94	733.235	0.023
734.1	733.404	0.022
734.26	733.535	0.023
734.41	733.675	0.023
734.57	733.854	0.022
734.73	734.045	0.023
734.89	734.194	0.022
735.04	734.335	0.023
735.21	734.504	0.022
735.37	734.655	0.023
735.53	734.824	0.022
735.7	734.975	0.023
735.85	735.135	0.023
736.01	735.245	0.023
736.17	735.465	0.023
736.34	735.615	0.023
736.49	735.775	0.023
736.65	735.905	0.023
736.81	736.105	0.023
736.97	736.265	0.023
737.13	736.443	0.021
737.28	736.564	0.022
737.44	736.715	0.023
737.59	736.914	0.022
737.75	737.063	0.021
737.91	737.194	0.022
738.07	737.363	0.021
738.23	737.535	0.023
738.4	737.704	0.022
738.55	737.864	0.022
738.72	738.024	0.022
738.88	738.204	0.022
739.03	738.384	0.022
739.2	738.553	0.021
739.36	738.694	0.022
739.53	738.833	0.021
739.68	739.023	0.021
739.84	739.183	0.021
740	739.334	0.022
740.15	739.484	0.022
740.31	739.653	0.021
740.47	739.824	0.022
740.63	739.964	0.022
740.79	740.104	0.022
740.94	740.253	0.021
741.1	740.463	0.021
741.26	740.594	0.022
741.42	740.763	0.021
741.57	740.904	0.022
741.73	741.103	0.021
741.89	741.254	0.022
742.05	741.414	0.022
742.21	741.593	0.021
742.36	741.713	0.021
742.52	741.874	0.022
742.68	742.014	0.022
742.83	742.184	0.022
742.99	742.363	0.021
743.15	742.494	0.022
743.31	742.664	0.022
743.47	742.804	0.022
743.62	742.973	0.021
743.78	743.103	0.021
743.94	743.293	0.021
744.1	743.454	0.022
744.25	743.603	0.021
744.41	743.762	0.02
744.57	743.903	0.021
744.72	744.093	0.021
744.88	744.242	0.02
745.04	744.373	0.021
745.2	744.542	0.02
745.36	744.703	0.021
745.51	744.872	0.02
745.68	745.013	0.021
745.84	745.193	0.021
745.99	745.353	0.021
746.15	745.523	0.021
746.31	745.692	0.02
746.47	745.823	0.021
746.62	745.952	0.02
746.79	746.132	0.02
746.95	746.283	0.021
747.1	746.463	0.021
747.26	746.582	0.02
747.42	746.723	0.021
747.58	746.932	0.02
747.73	747.083	0.021
747.9	747.222	0.02
748.06	747.392	0.02
748.21	747.553	0.021
748.37	747.723	0.021
748.53	747.872	0.02
748.69	748.033	0.021
748.85	748.223	0.021
749.01	748.412	0.02
749.17	748.562	0.02
749.32	748.703	0.021
749.48	748.852	0.02
749.63	749.032	0.02
749.79	749.192	0.02
749.95	749.343	0.021
750.11	749.483	0.021
750.27	749.612	0.02
750.42	749.822	0.02
750.58	749.972	0.02
750.74	750.132	0.02
750.9	750.262	0.02
751.06	750.462	0.02
751.22	750.612	0.02
751.38	750.791	0.019
751.55	750.922	0.02
751.7	751.092	0.02
751.86	751.262	0.02
752.02	751.422	0.02
752.18	751.572	0.02
752.33	751.732	0.02
752.49	751.882	0.02
752.66	752.062	0.02
752.81	752.222	0.02
752.97	752.381	0.019
753.14	752.561	0.019
753.29	752.742	0.02
753.45	752.892	0.02
753.62	753.051	0.019
753.78	753.161	0.019
753.94	753.352	0.02
754.1	753.512	0.02
754.25	753.681	0.019
754.41	753.822	0.02
754.57	753.952	0.02
754.74	754.161	0.019
754.89	754.302	0.02
755.05	754.452	0.02
755.21	754.592	0.02
755.36	754.772	0.02
755.52	754.932	0.02
755.69	755.092	0.02
755.85	755.242	0.02
756.01	755.451	0.019
756.17	755.63	0.018
756.32	755.79	0.018
756.48	755.95	0.018
756.64	756.09	0.018
756.8	756.26	0.018
756.96	756.401	0.019
757.12	756.57	0.018
757.28	756.73	0.018
757.45	756.91	0.018
757.62	757.07	0.018
757.77	757.211	0.019
757.93	757.37	0.018
758.09	757.511	0.019
758.24	757.691	0.019
758.4	757.859	0.017
758.57	758	0.018
758.72	758.159	0.017
758.88	758.339	0.017
759.04	758.499	0.017
759.21	758.65	0.018
759.37	758.819	0.017
759.54	758.979	0.017
759.69	759.149	0.017
759.86	759.319	0.017
760.02	759.459	0.017
760.18	759.619	0.017
760.33	759.79	0.018
760.49	759.969	0.017
760.65	760.11	0.018
760.81	760.279	0.017
760.96	760.389	0.017
761.12	760.569	0.017
761.28	760.729	0.017
761.43	760.898	0.016
761.59	761.028	0.016
761.75	761.19	0.018
761.91	761.398	0.016
762.07	761.528	0.016
762.23	761.669	0.017
762.39	761.809	0.017
762.55	762.018	0.016
762.71	762.178	0.016
762.86	762.328	0.016
763.03	762.499	0.017
763.18	762.668	0.016
763.34	762.828	0.016
763.5	762.998	0.016
763.65	763.148	0.016
763.81	763.288	0.016
763.97	763.449	0.017
764.13	763.609	0.017
764.29	763.769	0.017
764.44	763.909	0.017
764.61	764.108	0.016
764.77	764.259	0.017
764.93	764.408	0.016
765.08	764.597	0.015
765.24	764.719	0.017
765.4	764.888	0.016
765.55	765.048	0.016
765.71	765.187	0.015
765.88	765.357	0.015
766.03	765.528	0.016
766.2	765.707	0.015
766.36	765.837	0.015
766.52	766.007	0.015
766.68	766.167	0.015
766.85	766.348	0.016
767	766.508	0.016
767.16	766.657	0.015
767.33	766.827	0.015
767.49	767.018	0.016
767.64	767.177	0.015
767.8	767.318	0.016
767.96	767.497	0.015
768.11	767.607	0.015
768.27	767.787	0.015
768.43	767.937	0.015
768.58	768.087	0.015
768.74	768.218	0.016
768.9	768.397	0.015
769.06	768.567	0.015
769.22	768.726	0.014
769.37	768.916	0.014
769.53	769.007	0.015
769.7	769.187	0.015
769.85	769.347	0.015
770.01	769.506	0.014
770.17	769.706	0.014
770.34	769.866	0.014
770.5	770.037	0.015
770.66	770.187	0.015
770.83	770.337	0.015
770.99	770.497	0.015
771.14	770.666	0.014
771.3	770.826	0.014
771.46	770.987	0.015
771.62	771.136	0.014
771.79	771.336	0.014
771.95	771.467	0.015
772.1	771.636	0.014
772.26	771.777	0.015
772.42	771.918	0.016
772.58	772.126	0.014
772.74	772.276	0.014
772.89	772.416	0.014
773.05	772.566	0.014
773.21	772.766	0.014
773.37	772.935	0.013
773.53	773.056	0.014
773.69	773.256	0.014
773.85	773.395	0.013
774.01	773.556	0.014
774.16	773.706	0.014
774.32	773.865	0.013
774.48	774.016	0.014
774.64	774.205	0.013
774.8	774.375	0.013
774.96	774.516	0.014
775.12	774.685	0.013
775.28	774.816	0.014
775.43	774.995	0.013
775.59	775.146	0.014
775.75	775.295	0.013
775.9	775.426	0.014
776.06	775.626	0.014
776.22	775.775	0.013
776.37	775.934	0.012
776.54	776.114	0.012
776.71	776.265	0.013
776.86	776.415	0.013
777.02	776.575	0.013
777.18	776.734	0.012
777.34	776.905	0.013
777.5	777.095	0.013
777.67	777.264	0.012
777.82	777.395	0.013
777.98	777.544	0.012
778.14	777.725	0.013
778.29	777.894	0.012
778.46	778.054	0.012
778.62	778.204	0.012
778.79	778.335	0.013
778.94	778.534	0.012
779.1	778.675	0.013
779.26	778.835	0.013
779.42	778.974	0.012
779.57	779.164	0.012
779.73	779.315	0.013
779.9	779.494	0.012
780.06	779.625	0.013
780.22	779.784	0.012
780.37	779.964	0.012
780.53	780.105	0.013
780.69	780.273	0.011
780.84	780.444	0.012
781	780.583	0.011
781.17	780.754	0.012
781.33	780.904	0.012
781.48	781.054	0.012
781.64	781.195	0.013
781.8	781.403	0.011
781.96	781.554	0.012
782.11	781.703	0.011
782.27	781.873	0.011
782.43	781.993	0.011
782.6	782.164	0.012
782.75	782.323	0.011
782.91	782.454	0.012
783.07	782.603	0.011
783.22	782.794	0.012
783.39	782.973	0.011
783.56	783.114	0.012
783.72	783.284	0.012
783.88	783.444	0.012
784.04	783.623	0.011
784.2	783.754	0.012
784.37	783.923	0.011
784.53	784.103	0.011
784.7	784.293	0.011
784.86	784.453	0.011
785.02	784.594	0.012
785.18	784.744	0.012
785.34	784.923	0.011
785.5	785.084	0.012
785.67	785.263	0.011
785.83	785.394	0.012
785.98	785.544	0.012
786.14	785.743	0.011
786.3	785.893	0.011
786.46	786.034	0.012
786.61	786.174	0.012
786.78	786.373	0.011
786.94	786.543	0.011
787.09	786.693	0.011
787.26	786.834	0.012
787.42	787.003	0.011
787.57	787.164	0.012
787.73	787.323	0.011
787.89	787.474	0.012
788.05	787.624	0.012
788.21	787.783	0.011
788.37	787.963	0.011
788.53	788.122	0.01
788.68	788.254	0.012
788.85	788.415	0.013
789.01	788.614	0.012
789.16	788.754	0.012
789.32	788.914	0.012
789.48	789.034	0.012
789.64	789.223	0.011
789.79	789.383	0.011
789.95	789.544	0.012
790.11	789.683	0.011
790.27	789.833	0.011
790.43	790.044	0.012
790.59	790.193	0.011
790.75	790.343	0.011
790.9	790.464	0.012
791.06	790.644	0.012
791.22	790.814	0.012
791.38	790.963	0.011
791.53	791.113	0.011
791.7	791.274	0.012
791.86	791.473	0.011
792.02	791.623	0.011
792.17	791.774	0.012
792.33	791.913	0.011
792.49	792.104	0.012
792.64	792.244	0.012
792.8	792.414	0.012
792.96	792.563	0.011
793.12	792.694	0.012
793.27	792.883	0.011
793.43	793.024	0.012
793.58	793.193	0.011
793.74	793.324	0.012
793.91	793.504	0.012
794.07	793.664	0.012
794.22	793.813	0.011
794.39	793.963	0.011
794.56	794.113	0.011
794.71	794.283	0.011
794.87	794.424	0.012
795.03	794.584	0.012
795.19	794.773	0.011
795.35	794.884	0.012
795.5	795.054	0.012
795.67	795.224	0.012
795.84	795.393	0.011
795.99	795.543	0.011
796.16	795.744	0.012
796.31	795.904	0.012
796.47	796.073	0.011
796.64	796.213	0.011
796.79	796.363	0.011
796.95	796.552	0.01
797.11	796.693	0.011
797.27	796.842	0.01
797.43	796.964	0.012
797.58	797.182	0.01
797.74	797.323	0.011
797.91	797.492	0.01
798.07	797.642	0.01
798.22	797.793	0.011
798.38	797.963	0.011
798.54	798.132	0.01
798.69	798.272	0.01
798.85	798.442	0.01
799.01	798.632	0.01
799.17	798.802	0.01
799.32	798.922	0.01
799.49	799.062	0.01
799.65	799.243	0.011
799.8	799.423	0.011
799.96	799.563	0.011
800.13	799.742	0.01
800.29	799.882	0.01
800.45	800.082	0.01
800.6	800.231	0.009
800.76	800.391	0.009
800.92	800.512	0.01
801.08	800.702	0.01
801.24	800.881	0.009
801.39	801.022	0.01
801.55	801.161	0.009
801.71	801.292	0.01
801.86	801.472	0.01
802.02	801.631	0.009
802.19	801.791	0.009
802.35	801.961	0.009
802.5	802.111	0.009
802.67	802.271	0.009
802.83	802.421	0.009
802.99	802.562	0.01
803.14	802.731	0.009
803.31	802.931	0.009
803.47	803.09	0.008
803.62	803.221	0.009
803.78	803.391	0.009
803.94	803.51	0.008
804.1	803.681	0.009
804.25	803.841	0.009
804.41	803.99	0.008
804.57	804.111	0.009
804.72	804.291	0.009
804.88	804.48	0.008
805.04	804.62	0.008
805.2	804.77	0.008
805.36	804.9	0.008
805.51	805.091	0.009
805.67	805.24	0.008
805.83	805.4	0.008
805.99	805.551	0.009
806.14	805.731	0.009
806.31	805.9	0.008
806.47	806.051	0.009
806.62	806.22	0.008
806.78	806.37	0.008
806.94	806.521	0.009
807.1	806.68	0.008
807.26	806.83	0.008
807.42	807	0.008
807.58	807.131	0.009
807.73	807.291	0.009
807.9	807.48	0.008
808.06	807.629	0.007
808.22	807.741	0.009
808.37	807.949	0.007
808.53	808.109	0.007
808.7	808.259	0.007
808.85	808.419	0.007
809.01	808.57	0.008
809.17	808.739	0.007
809.32	808.899	0.007
809.48	809.02	0.008
809.64	809.17	0.008
809.79	809.35	0.008
809.95	809.51	0.008
810.11	809.68	0.008
810.27	809.839	0.007
810.43	810.009	0.007
810.58	810.17	0.008
810.74	810.319	0.007
810.9	810.47	0.008
811.06	810.554	0.012
811.21	810.77	0.008
811.37	810.939	0.007
811.53	811.099	0.007
811.7	811.288	0.006
811.85	811.37	0.008
812.01	811.589	0.007
812.17	811.72	0.008
812.33	811.88	0.008
812.49	812.038	0.006
812.66	812.22	0.008
812.81	812.408	0.006
812.97	812.548	0.006
813.13	812.689	0.007
813.29	812.868	0.006
813.44	813.059	0.007
813.6	813.199	0.007
813.76	813.348	0.006
813.92	813.479	0.007
814.07	813.659	0.007
814.23	813.819	0.007
814.39	813.969	0.007
814.55	814.129	0.007
814.71	814.268	0.006
814.88	814.469	0.007
815.04	814.609	0.007
815.19	814.769	0.007
815.35	814.908	0.006
815.51	815.099	0.007
815.66	815.248	0.006
815.82	815.399	0.007
815.98	815.539	0.007
816.14	815.679	0.007
816.29	815.849	0.007
816.45	816.008	0.006
816.61	816.149	0.007
816.76	816.338	0.006
816.92	816.459	0.007
817.08	816.629	0.007
817.24	816.798	0.006
817.4	816.948	0.006
817.56	817.099	0.007
817.72	817.289	0.007
817.87	817.448	0.006
818.03	817.579	0.007
818.19	817.748	0.006
818.36	817.889	0.007
818.51	818.059	0.007
818.67	818.208	0.006
818.83	818.339	0.007
818.99	818.508	0.006
819.14	818.679	0.007
819.3	818.829	0.007
819.46	818.979	0.007
819.61	819.139	0.007
819.77	819.258	0.006
819.93	819.438	0.006
820.09	819.598	0.006
820.25	819.739	0.007
820.42	819.949	0.007
820.58	820.099	0.007
820.73	820.269	0.007
820.89	820.419	0.007
821.05	820.579	0.007
821.21	820.709	0.007
821.36	820.869	0.007
821.52	821.029	0.007
821.68	821.169	0.007
821.85	821.349	0.007
822	821.499	0.007
822.17	821.689	0.007
822.34	821.848	0.006
822.49	822.028	0.006
822.66	822.159	0.007
822.82	822.348	0.006
822.97	822.488	0.006
823.13	822.648	0.006
823.29	822.769	0.007
823.45	822.949	0.007
823.61	823.109	0.007
823.77	823.249	0.007
823.92	823.389	0.007
824.08	823.538	0.006
824.25	823.759	0.007
824.4	823.929	0.007
824.56	824.049	0.007
824.72	824.209	0.007
824.88	824.399	0.007
825.03	824.579	0.007
825.2	824.719	0.007
825.36	824.868	0.006
825.52	825.018	0.006
825.68	825.189	0.007
825.84	825.359	0.007
826	825.508	0.006
826.15	825.639	0.007
826.32	825.829	0.007
826.48	825.999	0.007
826.64	826.139	0.007
826.8	826.348	0.006
826.96	826.43	0.008
827.12	826.638	0.006
827.27	826.76	0.008
827.43	826.919	0.007
827.6	827.11	0.008
827.75	827.28	0.008
827.91	827.42	0.008
828.07	827.599	0.007
828.23	827.74	0.008
828.38	827.89	0.008
828.54	828.069	0.007
828.71	828.23	0.008
828.86	828.38	0.008
829.02	828.51	0.008
829.18	828.67	0.008
829.35	828.87	0.008
829.5	829.02	0.008
829.66	829.18	0.008
829.82	829.33	0.008
829.97	829.51	0.008
830.13	829.659	0.007
830.29	829.77	0.008
830.44	829.939	0.007
830.6	830.08	0.008
830.76	830.26	0.008
830.92	830.4	0.008
831.07	830.56	0.008
831.23	830.709	0.007
831.39	830.88	0.008
831.54	831.03	0.008
831.7	831.209	0.007
831.87	831.34	0.008
832.02	831.54	0.008
832.19	831.71	0.008
832.35	831.84	0.008
832.51	831.999	0.007
832.68	832.11	0.008
832.85	832.31	0.008
833	832.45	0.008
833.16	832.619	0.007
833.33	832.78	0.008
833.49	832.95	0.008
833.66	833.129	0.007
833.82	833.29	0.008
833.98	833.44	0.008
834.14	833.6	0.008
834.3	833.77	0.008
834.46	833.93	0.008
834.61	834.08	0.008
834.77	834.269	0.007
834.93	834.421	0.009
835.09	834.59	0.008
835.25	834.75	0.008
835.41	834.909	0.007
835.57	835.031	0.009
835.73	835.23	0.008
835.9	835.399	0.007
836.06	835.511	0.009
836.22	835.69	0.008
836.38	835.871	0.009
836.54	836.049	0.007
836.71	836.21	0.008
836.87	836.36	0.008
837.03	836.501	0.009
837.19	836.691	0.009
837.35	836.831	0.009
837.5	836.961	0.009
837.66	837.101	0.009
837.83	837.271	0.009
837.98	837.47	0.008
838.14	837.61	0.008
838.3	837.766	0.004
838.45	837.901	0.009
838.61	838.09	0.008
838.77	838.25	0.008
838.93	838.381	0.009
839.08	838.531	0.009
839.25	838.71	0.008
839.41	838.89	0.008
839.58	839.03	0.008
839.74	839.161	0.009
839.89	839.281	0.009
840.05	839.481	0.009
840.21	839.66	0.008
840.37	839.811	0.009
840.53	839.97	0.008
840.7	840.111	0.009
840.86	840.311	0.009
841.02	840.47	0.008
841.19	840.669	0.007
841.34	840.77	0.008
841.5	840.94	0.008
841.66	841.081	0.009
841.82	841.26	0.008
841.98	841.431	0.009
842.14	841.581	0.009
842.29	841.761	0.009
842.45	841.929	0.007
842.61	842.07	0.008
842.76	842.171	0.009
842.92	842.381	0.009
843.08	842.549	0.007
843.24	842.689	0.007
843.4	842.84	0.008
843.56	842.971	0.009
843.71	843.16	0.008
843.87	843.319	0.007
844.03	843.469	0.007
844.19	843.63	0.008
844.35	843.829	0.007
844.51	843.98	0.008
844.67	844.13	0.008
844.83	844.27	0.008
844.99	844.41	0.008
845.15	844.589	0.007
845.3	844.709	0.007
845.46	844.87	0.008
845.62	845.04	0.008
845.78	845.21	0.008
845.94	845.33	0.008
846.1	845.519	0.007
846.26	845.679	0.007
846.43	845.86	0.008
846.6	846.01	0.008
846.75	846.149	0.007
846.91	846.299	0.007
847.07	846.44	0.008
847.22	846.589	0.007
847.38	846.779	0.007
847.55	846.939	0.007
847.7	847.09	0.008
847.86	847.21	0.008
848.02	847.41	0.008
848.18	847.579	0.007
848.33	847.719	0.007
848.49	847.85	0.008
848.65	848.03	0.008
848.81	848.21	0.008
848.96	848.379	0.007
849.12	848.53	0.008
849.29	848.71	0.008
849.45	848.9	0.008
849.62	849.07	0.008
849.78	849.239	0.007
849.93	849.329	0.007
850.1	849.559	0.007
850.26	849.69	0.008
850.42	849.898	0.006
850.58	850.028	0.006
850.74	850.159	0.007
850.89	850.348	0.006
851.05	850.519	0.007
851.21	850.639	0.007
851.37	850.808	0.006
851.53	850.989	0.007
851.69	851.168	0.006
851.86	851.289	0.007
852.02	851.439	0.007
852.17	851.589	0.007
852.33	851.769	0.007
852.49	851.919	0.007
852.65	852.069	0.007
852.81	852.239	0.007
852.97	852.408	0.006
853.13	852.579	0.007
853.28	852.748	0.006
853.44	852.869	0.007
853.6	853.048	0.006
853.76	853.239	0.007
853.92	853.379	0.007
854.08	853.529	0.007
854.24	853.669	0.007
854.4	853.848	0.006
854.56	853.988	0.006
854.71	854.139	0.007
854.87	854.308	0.006
855.03	854.448	0.006
855.19	854.648	0.006
855.34	854.778	0.006
855.5	854.909	0.007
855.66	855.039	0.007
855.82	855.228	0.006
855.97	855.379	0.007
856.13	855.539	0.007
856.29	855.689	0.007
856.44	855.879	0.007
856.6	856.069	0.007
856.77	856.228	0.006
856.93	856.409	0.007
857.08	856.489	0.007
857.24	856.698	0.006
857.4	856.859	0.007
857.56	857.038	0.006
857.71	857.179	0.007
857.87	857.318	0.006
858.03	857.489	0.007
858.18	857.629	0.007
858.34	857.789	0.007
858.5	857.919	0.007
858.66	858.128	0.006
858.82	858.259	0.007
858.98	858.438	0.006
859.14	858.549	0.007
859.3	858.719	0.007
859.47	858.909	0.007
859.63	859.079	0.007
859.78	859.208	0.006
859.94	859.359	0.007
860.1	859.519	0.007
860.25	859.699	0.007
860.41	859.839	0.007
860.57	860.009	0.007
860.73	860.168	0.006
860.89	860.388	0.006
861.05	860.509	0.007
861.22	860.658	0.006
861.37	860.779	0.007
861.53	860.949	0.007
861.68	861.129	0.007
861.84	861.289	0.007
862	861.468	0.006
862.16	861.579	0.007
862.32	861.759	0.007
862.47	861.919	0.007
862.63	862.059	0.007
862.79	862.199	0.007
862.95	862.369	0.007
863.1	862.558	0.006
863.26	862.699	0.007
863.42	862.839	0.007
863.58	863.029	0.007
863.73	863.209	0.007
863.89	863.359	0.007
864.05	863.499	0.007
864.21	863.629	0.007
864.36	863.809	0.007
864.52	863.978	0.006
864.68	864.089	0.007
864.83	864.248	0.006
864.99	864.379	0.007
865.16	864.589	0.007
865.32	864.749	0.007
865.47	864.889	0.007
865.64	865.049	0.007
865.81	865.229	0.007
865.96	865.408	0.006
866.12	865.519	0.007
866.28	865.688	0.006
866.44	865.828	0.006
866.59	865.998	0.006
866.75	866.158	0.006
866.91	866.328	0.006
867.07	866.439	0.007
867.22	866.6	0.008
867.38	866.799	0.007
867.54	866.959	0.007
867.71	867.09	0.008
867.87	867.259	0.007
868.03	867.459	0.007
868.19	867.629	0.007
868.35	867.749	0.007
868.5	867.908	0.006
868.67	868.03	0.008
868.83	868.2	0.008
868.98	868.389	0.007
869.15	868.509	0.007
869.31	868.66	0.008
869.47	868.869	0.007
869.63	869.019	0.007
869.79	869.15	0.008
869.94	869.349	0.007
870.1	869.479	0.007
870.26	869.669	0.007
870.42	869.799	0.007
870.57	869.959	0.007
870.73	870.149	0.007
870.89	870.319	0.007
871.05	870.469	0.007
871.2	870.629	0.007
871.36	870.759	0.007
871.52	870.89	0.008
871.67	871.079	0.007
871.84	871.249	0.007
872	871.4	0.008
872.16	871.559	0.007
872.31	871.699	0.007
872.47	871.879	0.007
872.63	872.019	0.007
872.79	872.199	0.007
872.94	872.34	0.008
873.1	872.49	0.008
873.26	872.63	0.008
873.42	872.78	0.008
873.57	872.968	0.006
873.73	873.069	0.007
873.89	873.24	0.008
874.05	873.389	0.007
874.21	873.539	0.007
874.37	873.728	0.006
874.52	873.85	0.008
874.69	874.039	0.007
874.85	874.238	0.006
875.01	874.358	0.006
875.16	874.49	0.008
875.32	874.709	0.007
875.48	874.858	0.006
875.64	874.989	0.007
875.8	875.109	0.007
875.96	875.29	0.008
876.12	875.469	0.007
876.28	875.648	0.006
876.45	875.808	0.006
876.61	875.93	0.008
876.77	876.168	0.006
876.93	876.308	0.006
877.09	876.41	0.008
877.25	876.558	0.006
877.4	876.719	0.007
877.56	876.909	0.007
877.72	877.059	0.007
877.88	877.19	0.008
878.04	877.399	0.007
878.2	877.609	0.007
878.36	877.73	0.008
878.52	877.928	0.006
878.68	877.99	0.008
878.83	878.219	0.007
878.99	878.37	0.008
879.15	878.538	0.006
879.31	878.689	0.007
879.47	878.82	0.008
879.62	879.018	0.006
879.79	879.149	0.007
879.95	879.299	0.007
880.11	879.43	0.008
880.26	879.6	0.008
880.42	879.76	0.008
880.57	879.91	0.008
880.73	880.04	0.008
880.89	880.18	0.008
881.05	880.379	0.007
881.21	880.56	0.008
881.38	880.7	0.008
881.54	880.88	0.008
881.7	881.03	0.008
881.86	881.21	0.008
882.02	881.35	0.008
882.19	881.539	0.007
882.35	881.69	0.008
882.5	881.899	0.007
882.66	882.02	0.008
882.82	882.16	0.008
882.97	882.29	0.008
883.13	882.46	0.008
883.29	882.62	0.008
883.45	882.8	0.008
883.62	882.97	0.008
883.78	883.11	0.008
883.94	883.29	0.008
884.09	883.439	0.007
884.26	883.59	0.008
884.42	883.72	0.008
884.57	883.9	0.008
884.73	884.08	0.008
884.89	884.239	0.007
885.05	884.379	0.007
885.2	884.59	0.008
885.36	884.75	0.008
885.52	884.89	0.008
885.68	885.089	0.007
885.85	885.2	0.008
886.01	885.37	0.008
886.17	885.56	0.008
886.33	885.69	0.008
886.49	885.859	0.007
886.64	886.029	0.007
886.8	886.21	0.008
886.96	886.33	0.008
887.11	886.47	0.008
887.27	886.629	0.007
887.43	886.829	0.007
887.6	886.979	0.007
887.75	887.11	0.008
887.91	887.24	0.008
888.07	887.399	0.007
888.23	887.57	0.008
888.4	887.749	0.007
888.56	887.87	0.008
888.71	888.05	0.008
888.88	888.219	0.007
889.04	888.39	0.008
889.19	888.559	0.007
889.35	888.699	0.007
889.52	888.87	0.008
889.68	889.088	0.006
889.84	889.218	0.006
890	889.34	0.008
890.16	889.469	0.007
890.32	889.629	0.007
890.48	889.8	0.008
890.64	889.939	0.007
890.79	890.079	0.007
890.95	890.239	0.007
891.11	890.448	0.006
891.27	890.579	0.007
891.43	890.718	0.006
891.59	890.869	0.007
891.75	891.02	0.008
891.91	891.209	0.007
892.07	891.358	0.006
892.22	891.499	0.007
892.38	891.669	0.007
892.54	891.869	0.007
892.69	892.009	0.007
892.85	892.179	0.007
893.01	892.288	0.006
893.18	892.498	0.006
893.33	892.639	0.007
893.49	892.799	0.007
893.65	892.909	0.007
893.8	893.069	0.007
893.96	893.279	0.007
894.12	893.449	0.007
894.28	893.578	0.006
894.44	893.738	0.006
894.6	893.908	0.006
894.76	894.069	0.007
894.93	894.238	0.006
895.08	894.358	0.006
895.25	894.509	0.007
895.4	894.719	0.007
895.56	894.878	0.006
895.73	894.999	0.007
895.88	895.138	0.006
896.04	895.358	0.006
896.21	895.519	0.007
896.37	895.679	0.007
896.52	895.809	0.007
896.68	895.988	0.006
896.84	896.187	0.005
897	896.317	0.005
897.16	896.441	0.009
897.33	896.618	0.006
897.49	896.759	0.007
897.66	896.967	0.005
897.82	897.107	0.005
897.97	897.238	0.006
898.13	897.407	0.005
898.29	897.578	0.006
898.45	897.737	0.005
898.61	897.887	0.005
898.76	898.057	0.005
898.92	898.188	0.006
899.08	898.377	0.005
899.24	898.527	0.005
899.39	898.667	0.005
899.55	898.857	0.005
899.71	899.038	0.006
899.87	899.207	0.005
900.03	899.356	0.004
900.18	899.448	0.006
900.34	899.608	0.006
900.5	899.827	0.005
900.66	899.948	0.006
900.82	900.127	0.005
900.98	900.257	0.005
901.14	900.447	0.005
901.29	900.569	0.007
901.45	900.757	0.005
901.61	900.888	0.006
901.76	901.047	0.005
901.92	901.218	0.006
902.08	901.397	0.005
902.24	901.507	0.005
902.39	901.647	0.005
902.56	901.808	0.006
902.72	901.987	0.005
902.87	902.138	0.006
903.03	902.267	0.005
903.19	902.408	0.006
903.35	902.608	0.006
903.51	902.788	0.006
903.67	902.928	0.006
903.83	903.077	0.005
903.99	903.288	0.006
904.15	903.458	0.006
904.3	903.598	0.006
904.46	903.708	0.006
904.62	903.847	0.005
904.78	904.018	0.006
904.93	904.188	0.006
905.09	904.348	0.006
905.25	904.498	0.006
905.41	904.648	0.006
905.57	904.818	0.006
905.72	904.921	0.009
905.89	905.097	0.005
906.05	905.228	0.006
906.21	905.428	0.006
906.37	905.578	0.006
906.54	905.747	0.005
906.7	905.878	0.006
906.86	906.108	0.006
907.02	906.287	0.005
907.18	906.417	0.005
907.33	906.548	0.006
907.49	906.707	0.005
907.65	906.878	0.006
907.81	907.047	0.005
907.96	907.188	0.006
908.12	907.387	0.005
908.28	907.508	0.006
908.44	907.688	0.006
908.59	907.847	0.005
908.76	907.998	0.006
908.92	908.138	0.006
909.08	908.377	0.005
909.24	908.508	0.006
909.4	908.648	0.006
909.56	908.788	0.006
909.72	908.938	0.006
909.88	909.127	0.005
910.03	909.247	0.005
910.19	909.398	0.006
910.35	909.548	0.006
910.5	909.757	0.005
910.66	909.888	0.006
910.82	910.078	0.006
910.97	910.207	0.005
911.13	910.408	0.006
911.29	910.588	0.006
911.45	910.748	0.006
911.6	910.838	0.006
911.76	910.978	0.006
911.92	911.148	0.006
912.07	911.318	0.006
912.23	911.458	0.006
912.39	911.607	0.005
912.56	911.729	0.007
912.71	911.968	0.006
912.87	912.098	0.006
913.03	912.247	0.005
913.18	912.388	0.006
913.34	912.568	0.006
913.5	912.738	0.006
913.65	912.897	0.005
913.82	913.037	0.005
913.98	913.237	0.005
914.14	913.388	0.006
914.3	913.548	0.006
914.46	913.678	0.006
914.61	913.808	0.006
914.78	914.017	0.005
914.94	914.168	0.006
915.1	914.327	0.005
915.25	914.448	0.006
915.41	914.607	0.005
915.57	914.778	0.006
915.72	914.938	0.006
915.89	915.087	0.005
916.05	915.248	0.006
916.22	915.417	0.005
916.37	915.578	0.006
916.53	915.698	0.006
916.68	915.837	0.005
916.85	915.997	0.005
917.01	916.118	0.006
917.17	916.367	0.005
917.34	916.478	0.006
917.5	916.648	0.006
917.66	916.808	0.006
917.83	917.048	0.006
917.99	917.168	0.006
918.14	917.368	0.006
918.3	917.487	0.005
918.46	917.698	0.006
918.61	917.827	0.005
918.78	917.968	0.006
918.94	918.058	0.006
919.1	918.178	0.006
919.25	918.397	0.005
919.41	918.557	0.005
919.57	918.698	0.006
919.73	918.847	0.005
919.88	919.018	0.006
920.04	919.208	0.006
920.2	919.358	0.006
920.36	919.478	0.006
920.51	919.638	0.006
920.67	919.818	0.006
920.83	919.998	0.006
920.99	920.137	0.005
921.14	920.328	0.006
921.3	920.518	0.006
921.46	920.648	0.006
921.62	920.807	0.005
921.79	920.948	0.006
921.95	921.128	0.006
922.1	921.298	0.006
922.26	921.457	0.005
922.42	921.588	0.006
922.58	921.748	0.006
922.74	921.948	0.006
922.89	922.088	0.006
923.05	922.228	0.006
923.21	922.407	0.005
923.38	922.567	0.005
923.54	922.767	0.005
923.7	922.898	0.006
923.86	923.028	0.006
924.02	923.188	0.006
924.17	923.367	0.005
924.33	923.517	0.005
924.5	923.668	0.006
924.65	923.807	0.005
924.82	924.027	0.005
924.98	924.188	0.006
925.13	924.358	0.006
925.29	924.487	0.005
925.45	924.657	0.005
925.61	924.857	0.005
925.76	925.007	0.005
925.92	925.137	0.005
926.08	925.288	0.006
926.24	925.388	0.006
926.41	925.587	0.005
926.57	925.718	0.006
926.73	925.877	0.005
926.89	926.018	0.006
927.04	926.208	0.006
927.2	926.378	0.006
927.36	926.547	0.005
927.52	926.717	0.005
927.69	926.857	0.005
927.85	927.056	0.004
928	927.216	0.004
928.16	927.336	0.004
928.32	927.517	0.005
928.48	927.717	0.005
928.64	927.867	0.005
928.8	927.997	0.005
928.96	928.127	0.005
929.11	928.257	0.005
929.27	928.427	0.005
929.43	928.626	0.004
929.58	928.757	0.005
929.74	928.917	0.005
929.9	929.117	0.005
930.06	929.287	0.005
930.22	929.417	0.005
930.37	929.577	0.005
930.53	929.746	0.004
930.7	929.946	0.004
930.85	930.057	0.005
931.01	930.187	0.005
931.17	930.337	0.005
931.33	930.506	0.004
931.49	930.667	0.005
931.65	930.806	0.004
931.81	930.926	0.004
931.97	931.117	0.005
932.13	931.317	0.005
932.29	931.496	0.004
932.45	931.635	0.003
932.61	931.785	0.003
932.76	931.965	0.003
932.92	932.156	0.004
933.08	932.276	0.004
933.24	932.395	0.003
933.39	932.526	0.004
933.56	932.716	0.004
933.71	932.886	0.004
933.88	933.026	0.004
934.04	933.195	0.003
934.2	933.355	0.003
934.37	933.546	0.004
934.53	933.686	0.004
934.7	933.896	0.004
934.86	934.006	0.004
935.02	934.215	0.003
935.18	934.346	0.004
935.34	934.535	0.003
935.5	934.715	0.003
935.66	934.876	0.004
935.83	935.026	0.004
935.99	935.196	0.004
936.14	935.316	0.004
936.31	935.476	0.004
936.47	935.675	0.003
936.62	935.845	0.003
936.79	935.986	0.004
936.95	936.155	0.003
937.1	936.336	0.004
937.27	936.515	0.003
937.44	936.665	0.003
937.6	936.815	0.003
937.77	937.015	0.003
937.93	937.205	0.003
938.09	937.325	0.003
938.26	937.435	0.003
938.41	937.595	0.003
938.57	937.795	0.003
938.73	937.925	0.003
938.88	938.084	0.002
939.04	938.254	0.002
939.2	938.394	0.002
939.35	938.585	0.003
939.51	938.735	0.003
939.67	938.895	0.003
939.82	939.055	0.003
939.98	939.235	0.003
940.14	939.364	0.002
940.3	939.514	0.002
940.46	939.655	0.003
940.61	939.775	0.003
940.77	939.935	0.003
940.93	940.105	0.003
941.08	940.225	0.003
941.25	940.375	0.003
941.41	940.545	0.003
941.57	940.745	0.003
941.72	940.865	0.003
941.88	940.985	0.003
942.04	941.135	0.003
942.2	941.365	0.003
942.36	941.524	0.002
942.53	941.664	0.002
942.69	941.795	0.003
942.85	941.985	0.003
943.01	942.195	0.003
943.17	942.324	0.002
943.32	942.484	0.002
943.48	942.624	0.002
943.64	942.823	0.001
943.79	942.964	0.002
943.95	943.104	0.002
944.11	943.263	0.001
944.27	943.373	0.001
944.43	943.554	0.002
944.58	943.694	0.002
944.74	943.863	0.001
944.9	944.003	0.001
945.06	944.194	0.002
945.21	944.354	0.002
945.37	944.458	0.006
945.53	944.604	0.002
945.68	944.774	0.002
945.84	945.003	0.001
946	945.143	0.001
946.16	945.263	0.001
946.31	945.423	0.001
946.47	945.593	0.001
946.64	945.813	0.001
946.79	945.934	0.002
946.95	946.084	0.002
947.11	946.284	0.002
947.27	946.484	0.002
947.43	946.613	0.001
947.59	946.723	0.001
947.75	946.854	0.002
947.91	947.034	0.002
948.06	947.213	0.001
948.22	947.373	0.001
948.38	947.464	0.002
948.54	947.624	0.002
948.69	947.834	0.002
948.85	947.963	0.001
949.01	948.104	0.002
949.17	948.274	0.002
949.33	948.444	0.002
949.5	948.613	0.001
949.65	948.793	0.001
949.81	948.923	0.001
949.97	949.163	0.001
950.14	949.314	0.002
950.3	949.483	0.001
950.47	949.663	0.001
950.63	949.803	0.001
950.78	949.944	0.002
950.94	950.133	0.001
951.1	950.244	0.002
951.26	950.424	0.002
951.42	950.553	0.001
951.57	950.744	0.002
951.73	950.893	0.001
951.89	951.053	0.001
952.05	951.164	0.002
952.2	951.383	0.001
952.36	951.533	0.001
952.52	951.653	0.001
952.68	951.774	0.002
952.84	951.925	0.003
953	952.113	0.001
953.16	952.234	0.002
953.32	952.424	0.002
953.47	952.523	0.001
953.63	952.753	0.001
953.79	952.904	0.002
953.94	953.114	0.002
954.1	953.204	0.002
954.26	953.344	0.002
954.42	953.574	0.002
954.57	953.773	0.001
954.74	953.854	0.002
954.9	953.984	0.002
955.06	954.133	0.001
955.21	954.294	0.002
955.37	954.464	0.002
955.53	954.584	0.002
955.69	954.802	-0
955.85	955.024	0.002
956.01	955.172	0
956.17	955.303	0.001
956.34	955.463	0.001
956.51	955.663	0.001
956.66	955.813	0.001
956.83	955.972	0
956.99	956.082	0
957.14	956.293	0.001
957.3	956.472	0
957.46	956.622	0
957.62	956.753	0.001
957.78	956.893	0.001
957.94	957.073	0.001
958.1	957.233	0.001
958.26	957.412	-0
958.41	957.532	0
958.57	957.723	0.001
958.73	957.903	0.001
958.89	958.063	0.001
959.05	958.203	0.001
959.21	958.362	0
959.36	958.513	0.001
959.53	958.712	0
959.69	958.853	0.001
959.85	959.032	0
960.01	959.133	0.001
960.17	959.362	0
960.32	959.473	0.001
960.49	959.603	0.001
960.65	959.783	0.001
960.81	959.983	0.001
960.97	960.162	0
961.13	960.322	0
961.29	960.443	0.001
961.44	960.663	0.001
961.6	960.813	0.001
961.76	960.973	0.001
961.92	961.083	0.001
962.07	961.213	0.001
962.23	961.403	0.001
962.39	961.562	0
962.55	961.723	0.001
962.7	961.833	0.001
962.86	962.003	0.001
963.02	962.203	0.001
963.18	962.373	0.001
963.33	962.503	0.001
963.49	962.653	0.001
963.65	962.842	0
963.81	963.013	0.001
963.96	963.133	0.001
964.12	963.263	0.001
964.28	963.463	0.001
964.44	963.662	0
964.59	963.783	0.001
964.75	963.923	0.001
964.91	964.053	0.001
965.07	964.222	0
965.23	964.393	0.001
965.38	964.572	0
965.54	964.684	0.002
965.7	964.833	0.001
965.86	965.023	0.001
966.02	965.202	0
966.18	965.332	0
966.34	965.492	-0
966.5	965.663	0.001
966.67	965.823	0.001
966.82	965.963	0.001
966.98	966.092	0
967.14	966.223	0.001
967.29	966.422	0
967.45	966.593	0.001
967.61	966.703	0.001
967.77	966.843	0.001
967.92	967.073	0.001
968.08	967.253	0.001
968.24	967.393	0.001
968.4	967.533	0.001
968.56	967.693	0.001
968.72	967.933	0.001
968.87	968.073	0.001
969.03	968.193	0.001
969.19	968.352	0
969.35	968.423	0.001
969.51	968.623	0.001
969.66	968.783	0.001
969.82	968.933	0.001
969.98	969.062	0
970.14	969.213	0.001
970.29	969.403	0.001
970.45	969.553	0.001
970.61	969.683	0.001
970.76	969.823	0.001
970.92	970.042	0
971.08	970.213	0.001
971.24	970.343	0.001
971.39	970.453	0.001
971.55	970.723	0.001
971.71	970.853	0.001
971.87	971.003	0.001
972.03	971.172	0
972.19	971.303	0.001
972.35	971.482	0
972.51	971.673	0.001
972.67	971.773	0.001
972.83	971.962	0
972.99	972.183	0.001
973.15	972.323	0.001
973.3	972.453	0.001
973.46	972.632	0
973.62	972.763	0.001
973.78	972.963	0.001
973.93	973.102	0
974.09	973.213	0.001
974.25	973.372	0
974.41	973.545	0.003
974.56	973.693	0.001
974.72	973.859	-0.003
974.88	973.983	0.001
975.04	974.182	0
975.19	974.353	0.001
975.35	974.513	0.001
975.51	974.653	0.001
975.66	974.812	0
975.82	975.032	0
975.98	975.183	0.001
976.14	975.293	0.001
976.29	975.413	0.001
976.45	975.572	0
976.61	975.713	0.001
976.76	975.873	0.001
976.92	975.993	0.001
977.08	976.113	0.001
977.24	976.303	0.001
977.39	976.442	0
977.55	976.623	0.001
977.71	976.753	0.001
977.87	976.953	0.001
978.03	977.043	0.001
978.19	977.243	0.001
978.34	977.383	0.001
978.5	977.573	0.001
978.66	977.713	0.001
978.82	977.933	0.001
978.97	978.083	0.001
979.13	978.263	0.001
979.29	978.353	0.001
979.45	978.503	0.001
979.6	978.693	0.001
979.76	978.883	0.001
979.92	979.003	0.001
980.08	979.173	0.001
980.23	979.373	0.001
980.39	979.553	0.001
980.55	979.673	0.001
980.71	979.832	-0
980.86	979.963	0.001
981.03	980.173	0.001
981.19	980.333	0.001
981.35	980.443	0.001
981.5	980.632	0
981.66	980.812	0
981.82	980.953	0.001
981.98	981.083	0.001
982.14	981.213	0.001
982.3	981.483	0.001
982.46	981.642	0
982.61	981.763	0.001
982.78	981.942	0
982.94	982.103	0.001
983.1	982.293	0.001
983.26	982.432	0
983.42	982.553	0.001
983.57	982.713	0.001
983.73	982.853	0.001
983.89	983.023	0.001
984.05	983.183	0.001
984.21	983.313	0.001
984.36	983.493	0.001
984.52	983.712	0
984.68	983.843	0.001
984.83	983.953	0.001
984.99	984.143	0.001
985.15	984.283	0.001
985.31	984.473	0.001
985.46	984.614	0.002
985.62	984.743	0.001
985.78	984.943	0.001
985.93	985.132	0
986.09	985.273	0.001
986.25	985.423	0.001
986.41	985.553	0.001
986.57	985.763	0.001
986.72	985.922	0
986.89	986.072	0
987.05	986.203	0.001
987.21	986.373	0.001
987.36	986.583	0.001
987.52	986.723	0.001
987.68	986.872	0
987.83	987.022	0
988	987.223	0.001
988.15	987.363	0.001
988.31	987.503	0.001
988.46	987.612	0
988.63	987.783	0.001
988.79	987.993	0.001
988.95	988.152	0
989.11	988.273	0.001
989.27	988.452	0
989.43	988.593	0.001
989.58	988.793	0.001
989.74	988.923	0.001
989.9	989.043	0.001
990.06	989.213	0.001
990.21	989.452	0
990.37	989.573	0.001
990.53	989.722	0
990.69	989.863	0.001
990.86	990.023	0.001
991.02	990.183	0.001
991.17	990.343	0.001
991.33	990.472	0
991.49	990.643	0.001
991.65	990.832	0
991.82	991.002	0
991.98	991.113	0.001
992.14	991.303	0.001
992.3	991.423	0.001
992.46	991.623	0.001
992.61	991.763	0.001
992.78	991.913	0.001
992.94	992.103	0.001
993.1	992.333	0.001
993.26	992.463	0.001
993.42	992.593	0.001
993.57	992.723	0.001
993.73	992.883	0.001
993.89	993.084	0.002
994.04	993.223	0.001
994.2	993.382	-0
994.36	993.513	0.001
994.52	993.713	0.001
994.67	993.899	-0.003
994.84	993.993	0.001
995	994.143	0.001
995.15	994.303	0.001
995.31	994.493	0.001
995.47	994.613	0.001
995.63	994.773	0.001
995.78	994.902	0
995.94	995.043	0.001
996.1	995.213	0.001
996.26	995.383	0.001
996.42	995.502	0
996.57	995.673	0.001
996.73	995.922	0
996.89	996.093	0.001
997.05	996.202	0
997.2	996.353	0.001
997.36	996.593	0.001
997.52	996.753	0.001
997.69	996.853	0.001
997.85	996.963	0.001
998.01	997.122	0
998.17	997.313	0.001
998.33	997.502	0
998.49	997.612	0
998.64	997.763	0.001
998.8	998.002	0
998.96	998.143	0.001
999.12	998.273	0.001
999.27	998.433	0.001
999.43	998.583	0.001
999.59	998.783	0.001
999.75	998.932	0
999.9	999.053	0.001
1000.06	999.27	-0.002
1000.22	999.413	0.001
1000.39	999.562	0
1000.55	999.733	0.001
1000.7	999.901	-0.001
1000.86	1000.03	0
1001.02	1000.2	0.001
1001.18	1000.37	0
1001.34	1000.5	0.001
1001.49	1000.65	0
1001.65	1000.81	0
1001.81	1000.96	0.001
1001.97	1001.1	0
1002.13	1001.22	0.001
1002.28	1001.4	0.001
1002.44	1001.54	0.001
1002.6	1001.7	0.001
1002.76	1001.83	0.001
1002.92	1001.98	0.001
1003.07	1002.13	0
1003.23	1002.34	0.001
1003.39	1002.49	0
1003.55	1002.63	0
1003.7	1002.82	0.001
1003.86	1003.02	0.001
1004.02	1003.18	0
1004.18	1003.32	0.001
1004.33	1003.46	0.001
1004.49	1003.64	0.001
1004.65	1003.79	0.001
1004.8	1003.94	0.001
1004.96	1004.08	0
1005.12	1004.19	0.001
1005.28	1004.36	0
1005.44	1004.53	0.001
1005.59	1004.72	0.001
1005.75	1004.81	0.001
1005.91	1004.97	0
1006.07	1005.19	0.001
1006.23	1005.39	0
1006.38	1005.47	0.001
1006.54	1005.63	0.001
1006.7	1005.8	0.001
1006.86	1006.03	0
1007.02	1006.12	0
1007.18	1006.24	0.001
1007.33	1006.53	0.001
1007.49	1006.69	0.001
1007.65	1006.83	0.001
1007.81	1007	0.001
1007.97	1007.08	0.001
1008.13	1007.34	-0.001
1008.29	1007.45	0.001
1008.45	1007.61	0
1008.6	1007.74	0.001
1008.76	1007.91	0
1008.92	1008.12	0.001
1009.08	1008.27	0
1009.24	1008.44	0
1009.39	1008.54	0.001
1009.55	1008.74	0.001
1009.71	1008.88	0.001
1009.87	1009.02	0.001
1010.03	1009.16	0.001
1010.19	1009.34	0.001
1010.34	1009.51	0
1010.5	1009.66	0.001
1010.66	1009.8	0
1010.82	1010	0.001
1010.97	1010.17	0.001
1011.13	1010.35	0
1011.29	1010.5	0.001
1011.45	1010.65	0.001
1011.61	1010.84	0.001
1011.76	1011.04	0.001
1011.92	1011.17	0
1012.08	1011.3	0
1012.24	1011.39	0.001
1012.4	1011.54	0.001
1012.55	1011.73	0.001
1012.71	1011.86	0.001
1012.87	1012	0.001
1013.03	1012.18	0.001
1013.18	1012.4	0
1013.34	1012.54	0.001
1013.5	1012.69	0
1013.66	1012.81	0.002
1013.82	1013.03	0.001
1013.98	1013.16	0.001
1014.14	1013.33	0
1014.29	1013.4	0.001
1014.45	1013.63	0.001
1014.61	1013.8	0.001
1014.77	1013.98	0.001
1014.92	1014.08	0.001
1015.08	1014.25	0
1015.24	1014.41	0.001
1015.4	1014.59	0.001
1015.55	1014.72	0.001
1015.71	1014.86	0.001
1015.87	1015.01	0.001
1016.03	1015.26	0.001
1016.19	1015.39	0.001
1016.34	1015.55	0
1016.5	1015.66	0.001
1016.66	1015.86	0.001
1016.82	1016.01	0.001
1016.97	1016.15	0.001
1017.13	1016.26	0.001
1017.29	1016.43	0.001
1017.45	1016.63	0
1017.6	1016.75	0.001
1017.76	1016.88	0.001
1017.92	1017.03	0
1018.08	1017.26	0
1018.24	1017.41	0.001
1018.39	1017.58	0.001
1018.55	1017.7	0.001
1018.71	1017.86	0.001
1018.86	1018.07	0.001
1019.03	1018.23	0
1019.18	1018.35	0.001
1019.34	1018.46	0.001
1019.5	1018.59	0
1019.65	1018.78	0
1019.81	1018.94	0.001
1019.97	1019.09	0.001
1020.13	1019.23	0.001
1020.29	1019.39	0.001
1020.44	1019.62	0.001
1020.6	1019.75	0
1020.76	1019.87	0.001
1020.92	1020.01	0.001
1021.07	1020.23	0.001
1021.23	1020.36	0.001
1021.39	1020.5	0.001
1021.55	1020.64	0
1021.7	1020.91	0.001
1021.86	1021.03	0.001
1022.02	1021.19	0
1022.18	1021.35	0
1022.34	1021.49	-0.003
1022.49	1021.69	0
1022.65	1021.85	0
1022.81	1021.99	0
1022.96	1022.14	0.001
1023.12	1022.34	0.001
1023.28	1022.51	0.001
1023.44	1022.64	0.001
1023.6	1022.81	0
1023.75	1022.94	0.001
1023.91	1023.13	0
1024.07	1023.27	0.001
1024.23	1023.4	0.001
1024.38	1023.53	0.001
1024.54	1023.68	0.001
1024.7	1023.88	0.001
1024.86	1024.03	0
1025.02	1024.17	0
1025.17	1024.36	0.001
1025.33	1024.57	0.001
1025.49	1024.7	0.001
1025.64	1024.83	0.001
1025.8	1025	0
1025.96	1025.2	0.001
1026.12	1025.35	0.001
1026.28	1025.48	0.001
1026.44	1025.62	0
1026.6	1025.75	0
1026.75	1025.9	0.001
1026.91	1026.05	0.001
1027.07	1026.19	0
1027.23	1026.32	0.001
1027.39	1026.5	0.001
1027.54	1026.71	0.001
1027.7	1026.85	0.001
1027.87	1026.99	0.001
1028.03	1027.16	0.001
1028.18	1027.32	0.001
1028.35	1027.49	0.001
1028.51	1027.63	0.001
1028.67	1027.76	0
1028.82	1027.94	0
1028.98	1028.13	0.001
1029.14	1028.27	0.001
1029.3	1028.42	0.001
1029.46	1028.56	0
1029.61	1028.7	0
1029.77	1028.88	0.001
1029.93	1029.04	-0
1030.09	1029.2	0.001
1030.24	1029.31	0.001
1030.4	1029.5	0
1030.56	1029.68	0.001
1030.72	1029.86	0.001
1030.88	1029.98	0
1031.03	1030.07	0.001
1031.19	1030.29	0.001
1031.35	1030.49	0
1031.51	1030.58	0
1031.67	1030.74	0
1031.84	1030.94	0.001
1032	1031.15	0.001
1032.16	1031.24	0.001
1032.31	1031.36	0.001
1032.47	1031.58	-0
1032.63	1031.81	0.001
1032.78	1031.92	0.001
1032.94	1032.04	0.001
1033.1	1032.21	0.002
1033.26	1032.49	0.001
1033.42	1032.57	0.001
1033.58	1032.67	0.001
1033.74	1032.86	0.001
1033.89	1032.99	0.001
1034.05	1033.17	0.001
1034.21	1033.27	0.001
1034.37	1033.41	0.001
1034.53	1033.6	0.001
1034.68	1033.86	0
1034.84	1033.96	0.002
1035	1034.12	0.001
1035.16	1034.33	0
1035.32	1034.49	0.001
1035.47	1034.66	0.001
1035.63	1034.79	0.001
1035.79	1034.91	0.001
1035.95	1035.15	0.001
1036.11	1035.3	0.001
1036.26	1035.46	0.001
1036.42	1035.57	0.001
1036.58	1035.75	0.001
1036.74	1035.95	0
1036.89	1036.12	0
1037.05	1036.22	0.001
1037.21	1036.38	0.001
1037.37	1036.51	0.001
1037.52	1036.77	0.001
1037.68	1036.9	0
1037.84	1037.02	0.001
1038	1037.16	0.001
1038.15	1037.34	0.001
1038.31	1037.52	0.001
1038.47	1037.64	0.001
1038.64	1037.8	0.001
1038.8	1037.91	0.001
1038.96	1038.13	0.001
1039.11	1038.27	0.001
1039.27	1038.42	0.001
1039.43	1038.55	0.001
1039.59	1038.8	0.001
1039.75	1038.95	0.001
1039.91	1039.11	0
1040.07	1039.19	0.001
1040.23	1039.37	0.001
1040.39	1039.6	0.001
1040.55	1039.78	0
1040.71	1039.87	0.001
1040.86	1040.03	0.001
1041.02	1040.17	0.001
1041.18	1040.41	0.001
1041.33	1040.52	0.001
1041.49	1040.65	0
1041.65	1040.79	0.001
1041.81	1041.04	0.001
1041.96	1041.15	0.001
1042.12	1041.29	0.001
1042.28	1041.45	0.001
1042.44	1041.6	0.001
1042.6	1041.77	0.001
1042.75	1041.91	0.001
1042.91	1042.05	0.001
1043.07	1042.27	0
1043.23	1042.42	0.001
1043.38	1042.57	0.001
1043.55	1042.7	0.001
1043.71	1042.89	0
1043.86	1043.04	0.003
1044.02	1043.21	0.001
1044.18	1043.37	0.001
1044.34	1043.51	0.001
1044.5	1043.68	0.001
1044.65	1043.89	0
1044.81	1044.05	0.001
1044.97	1044.17	0.001
1045.13	1044.34	0
1045.28	1044.46	0.001
1045.44	1044.66	0.001
1045.6	1044.79	0.001
1045.76	1044.9	0.002
1045.92	1045.08	0.001
1046.07	1045.25	0.001
1046.23	1045.43	0.001
1046.39	1045.55	-0
1046.55	1045.72	0.001
1046.71	1045.91	0
1046.86	1046.1	0.001
1047.02	1046.23	0.001
1047.18	1046.38	0.001
1047.34	1046.52	0.001
1047.5	1046.73	0.001
1047.66	1046.9	0.001
1047.82	1047.02	0.001
1047.98	1047.2	0.001
1048.14	1047.36	0.001
1048.29	1047.52	0.001
1048.45	1047.66	0.001
1048.61	1047.78	0
1048.77	1047.93	0.001
1048.93	1048.17	0.001
1049.09	1048.34	0.001
1049.24	1048.45	0
1049.4	1048.63	0
1049.56	1048.78	0
1049.72	1048.99	0.001
1049.88	1049.1	0.001
1050.03	1049.24	0
1050.19	1049.42	0.001
1050.35	1049.64	0
1050.51	1049.74	0.001
1050.66	1049.9	0
1050.82	1050.04	0
1050.98	1050.22	0.001
1051.14	1050.4	0
1051.29	1050.53	0.001
1051.45	1050.68	0.001
1051.61	1050.84	0.001
1051.77	1051.04	0.001
1051.92	1051.17	0.001
1052.08	1051.33	0
1052.24	1051.49	0.001
1052.4	1051.65	0
1052.55	1051.78	0.001
1052.71	1051.93	0.001
1052.87	1052.07	0.001
1053.03	1052.24	0.001
1053.19	1052.41	0.001
1053.35	1052.57	0.001
1053.51	1052.71	0.001
1053.67	1052.84	0.001
1053.82	1053.06	-0
1053.98	1053.23	0.001
1054.14	1053.39	0.001
1054.3	1053.53	0.001
1054.46	1053.68	0.001
1054.61	1053.87	0.001
1054.77	1054.03	0.001
1054.93	1054.15	0.001
1055.09	1054.3	0
1055.24	1054.38	0.001
1055.4	1054.52	0.001
1055.56	1054.72	0
1055.72	1054.85	0.001
1055.88	1055	0
1056.04	1055.14	0.001
1056.2	1055.35	0.001
1056.36	1055.51	0.001
1056.51	1055.68	0.001
1056.67	1055.81	0.001
1056.83	1055.99	0.001
1056.99	1056.16	0.001
1057.15	1056.34	0.001
1057.32	1056.42	0.001
1057.48	1056.67	0
1057.63	1056.86	0.001
1057.79	1057	0.001
1057.95	1057.12	0.001
1058.11	1057.26	0.001
1058.26	1057.43	0.001
1058.42	1057.63	0.001
1058.58	1057.74	0.001
1058.74	1057.93	0.001
1058.9	1058.15	0.001
1059.06	1058.33	0.001
1059.21	1058.46	0.001
1059.37	1058.59	0
1059.53	1058.72	0.001
1059.68	1058.94	0.001
1059.84	1059.07	0.001
1060	1059.21	0.001
1060.16	1059.38	0.001
1060.32	1059.49	0.001
1060.48	1059.7	0.001
1060.64	1059.86	0
1060.8	1059.99	0.001
1060.96	1060.21	0.001
1061.11	1060.38	0.001
1061.27	1060.54	0
1061.43	1060.67	0.001
1061.58	1060.84	0.001
1061.74	1061.02	0.001
1061.9	1061.19	0.001
1062.06	1061.33	0.001
1062.21	1061.47	0
1062.37	1061.64	-0.001
1062.53	1061.8	0
1062.69	1061.92	0.001
1062.85	1062.07	0.001
1063.01	1062.24	0.001
1063.18	1062.4	0.001
1063.33	1062.63	0.001
1063.49	1062.75	0.001
1063.65	1062.94	0.002
1063.81	1063.04	0
1063.96	1063.26	0.001
1064.12	1063.4	0.001
1064.28	1063.56	0.001
1064.44	1063.66	0.001
1064.6	1063.92	0.001
1064.75	1064.06	0.001
1064.91	1064.22	0
1065.07	1064.35	0.001
1065.23	1064.47	0.001
1065.39	1064.66	0.001
1065.54	1064.83	0
1065.7	1064.97	0.001
1065.86	1065.12	0.002
1066.02	1065.29	0.001
1066.18	1065.51	0
1066.33	1065.63	0.001
1066.49	1065.81	0.001
1066.65	1065.9	0.001
1066.81	1066.07	0.001
1066.97	1066.25	0
1067.12	1066.37	0.001
1067.28	1066.49	0.001
1067.44	1066.63	0.001
1067.6	1066.88	0
1067.75	1066.97	0.001
1067.91	1067.11	0.001
1068.07	1067.29	0
1068.23	1067.51	0.001
1068.39	1067.64	0.001
1068.55	1067.8	0.001
1068.71	1067.95	0.001
1068.86	1068.13	0.002
1069.02	1068.3	0.001
1069.18	1068.43	0.001
1069.34	1068.56	0.001
1069.5	1068.72	0.001
1069.66	1068.91	0.001
1069.81	1069.02	0.001
1069.97	1069.19	0
1070.13	1069.32	0.001
1070.28	1069.53	0.001
1070.44	1069.71	0.001
1070.6	1069.85	0.001
1070.76	1069.97	0.001
1070.92	1070.17	0.001
1071.07	1070.31	0.001
1071.23	1070.5	0.001
1071.39	1070.63	0.001
1071.55	1070.76	0.001
1071.71	1070.97	0
1071.87	1071.18	0.001
1072.02	1071.32	0.001
1072.18	1071.44	0.001
1072.34	1071.58	0.001
1072.5	1071.8	0.001
1072.66	1071.97	0.001
1072.82	1072.11	0.001
1072.98	1072.23	0.001
1073.13	1072.43	0.001
1073.29	1072.63	0.001
1073.45	1072.77	0.001
1073.6	1072.89	0.001
1073.76	1073.04	0.001
1073.92	1073.23	0.001
1074.08	1073.38	0.001
1074.23	1073.54	0
1074.39	1073.65	0.001
1074.55	1073.78	0.001
1074.71	1074.04	0
1074.86	1074.17	0.001
1075.02	1074.28	0.001
1075.18	1074.47	0.001
1075.34	1074.67	0.001
1075.5	1074.85	0.001
1075.65	1074.96	0.001
1075.81	1075.1	0.001
1075.97	1075.3	0.001
1076.13	1075.49	0.001
1076.28	1075.61	0.001
1076.44	1075.75	0.001
1076.6	1075.91	0.001
1076.76	1076.09	0.001
1076.92	1076.23	0.001
1077.08	1076.39	0.001
1077.24	1076.51	0.001
1077.39	1076.7	0.001
1077.55	1076.88	0.001
1077.71	1077.05	-0.002
1077.87	1077.15	0.001
1078.03	1077.33	0
1078.18	1077.5	0
1078.34	1077.65	0.001
1078.5	1077.79	0.001
1078.65	1077.92	0.001
1078.81	1078.15	0.001
1078.97	1078.33	0.001
1079.13	1078.45	0.001
1079.29	1078.6	0.001
1079.44	1078.76	0
1079.6	1078.91	0.001
1079.76	1079.09	0.001
1079.92	1079.23	0.001
1080.08	1079.37	0.001
1080.24	1079.5	0.001
1080.39	1079.7	0.001
1080.55	1079.86	0.001
1080.71	1079.97	0.001
1080.86	1080.14	0.001
1081.02	1080.25	0.001
1081.18	1080.46	0.001
1081.34	1080.61	-0
1081.5	1080.78	0
1081.65	1080.89	0.001
1081.81	1081.03	0.001
1081.97	1081.26	0.001
1082.13	1081.42	0.001
1082.28	1081.52	0.001
1082.44	1081.76	0.001
1082.6	1081.95	0
1082.76	1082.11	0.001
1082.92	1082.24	0.001
1083.07	1082.39	0.003
1083.23	1082.62	-0
1083.39	1082.77	0.001
1083.54	1082.88	0
1083.7	1083.04	0.001
1083.86	1083.17	0
1084.02	1083.38	0
1084.18	1083.5	0
1084.33	1083.61	0.001
1084.49	1083.8	0
1084.66	1084.03	0
1084.82	1084.16	0.001
1084.97	1084.3	0.001
1085.13	1084.48	0
1085.29	1084.64	0.001
1085.45	1084.8	0.001
1085.6	1084.94	0.001
1085.76	1085.07	0.001
1085.92	1085.29	0.001
1086.08	1085.47	0
1086.24	1085.61	0.001
1086.39	1085.75	0.001
1086.55	1085.91	0.001
1086.71	1086.1	0.001
1086.87	1086.25	0.001
1087.03	1086.41	0.001
1087.19	1086.55	0.001
1087.34	1086.74	-0
1087.5	1086.92	0.001
1087.66	1087.07	0.001
1087.82	1087.19	0.001
1087.98	1087.35	0.001
1088.13	1087.5	0.001
1088.29	1087.68	0.001
1088.45	1087.82	0.001
1088.6	1087.93	0.001
1088.76	1088.09	0.001
1088.92	1088.25	0.001
1089.08	1088.44	0.001
1089.24	1088.59	0
1089.4	1088.73	0
1089.56	1088.94	0
1089.71	1089.11	0.001
1089.87	1089.27	0
1090.03	1089.42	0
1090.19	1089.54	0.001
1090.35	1089.75	0.001
1090.5	1089.9	0.001
1090.66	1090.04	0.001
1090.82	1090.15	0.001
1090.98	1090.3	0.001
1091.14	1090.49	0.001
1091.3	1090.64	0.001
1091.45	1090.78	0.001
1091.61	1090.94	0.001
1091.77	1091.16	0
1091.93	1091.32	0.001
1092.08	1091.47	0
1092.24	1091.63	0.001
1092.4	1091.75	0.001
1092.56	1091.93	0
1092.71	1092.08	0.001
1092.87	1092.21	0.001
1093.03	1092.33	0.001
1093.19	1092.57	0.001
1093.34	1092.72	0.001
1093.5	1092.81	0.001
1093.66	1092.95	0.001
1093.82	1093.12	0.001
1093.97	1093.34	0.001
1094.13	1093.46	0.001
1094.3	1093.62	0.001
1094.45	1093.8	0.001
1094.61	1093.98	0.001
1094.77	1094.15	0.001
1094.93	1094.28	0.001
1095.09	1094.42	0.001
1095.25	1094.58	0.001
1095.41	1094.74	0
1095.57	1094.91	0.001
1095.73	1095.08	0
1095.89	1095.2	0.001
1096.05	1095.36	0
1096.21	1095.6	0
1096.37	1095.72	0.001
1096.53	1095.87	0
1096.69	1096.03	0.001
1096.85	1096.25	0.001
1097	1096.41	0.001
1097.16	1096.54	0.001
1097.32	1096.68	0.001
1097.48	1096.86	0.001
1097.64	1097.07	0.001
1097.79	1097.15	0.003
1097.95	1097.29	0
1098.11	1097.4	0.001
1098.27	1097.57	0.001
1098.43	1097.75	0.001
1098.58	1097.92	0.001
1098.74	1098.08	0.001
1098.9	1098.23	0.001
1099.06	1098.41	0.005
1099.22	1098.59	0.001
1099.38	1098.72	0.001
1099.53	1098.85	0.001
1099.69	1099.1	0.001
1099.85	1099.23	0.001
1100.01	1099.36	0.001
1100.17	1099.47	0.001
1100.32	1099.77	0.001
1100.48	1099.92	0.001
1100.65	1100.04	0.001
1100.81	1100.2	0
1100.97	1100.32	0.001
1101.13	1100.53	0.001
1101.28	1100.69	0.001
1101.44	1100.83	0.001
1101.6	1100.98	0.001
1101.75	1101.2	0.001
1101.91	1101.36	0.001
1102.07	1101.49	-0
1102.23	1101.64	0.001
1102.38	1101.74	0.001
1102.54	1101.97	0.001
1102.7	1102.09	0.001
1102.86	1102.24	0
1103.01	1102.39	0
1103.17	1102.53	-0
1103.34	1102.72	0.001
1103.5	1102.87	0.001
1103.65	1102.99	0.001
1103.81	1103.19	0.001
1103.97	1103.36	0.001
1104.13	1103.53	0.001
1104.28	1103.7	-0.001
1104.44	1103.82	0.001
1104.6	1104	0.001
1104.75	1104.14	0.001
1104.91	1104.29	0.001
1105.07	1104.47	0
1105.23	1104.59	0.001
1105.39	1104.7	0.001
1105.54	1104.89	0.001
1105.7	1105.03	0.001
1105.86	1105.16	0.001
1106.02	1105.29	0.001
1106.18	1105.52	0.001
1106.34	1105.69	0.001
1106.49	1105.83	0.001
1106.65	1105.99	0
1106.81	1106.16	0
1106.97	1106.32	0.001
1107.13	1106.46	0.001
1107.29	1106.64	-0.003
1107.44	1106.81	0.001
1107.6	1106.99	0.001
1107.76	1107.13	0.001
1107.92	1107.28	0.001
1108.07	1107.42	0.001
1108.23	1107.65	0.001
1108.39	1107.82	0
1108.55	1107.95	0.001
1108.71	1108.08	0.001
1108.86	1108.24	0.001
1109.02	1108.47	0.001
1109.18	1108.61	0.001
1109.34	1108.74	0.001
1109.5	1108.89	0.001
1109.65	1109.06	0.001
1109.81	1109.27	-0.002
1109.97	1109.33	0.001
1110.12	1109.46	0.001
1110.28	1109.65	0.001
1110.44	1109.9	0.001
1110.6	1110	0.001
1110.75	1110.15	0.001
1110.91	1110.34	0.001
1111.07	1110.55	0.003
1111.23	1110.69	0.001
1111.39	1110.84	0.001
1111.55	1110.99	0
1111.7	1111.19	0.001
1111.86	1111.35	0.001
1112.02	1111.48	0.001
1112.19	1111.63	0.001
1112.35	1111.77	0.001
1112.5	1111.95	0.001
1112.66	1112.07	0.001
1112.82	1112.23	0.001
1112.97	1112.37	0.001
1113.13	1112.58	0
1113.29	1112.75	0
1113.45	1112.9	0.001
1113.61	1113.04	0.001
1113.77	1113.22	0
1113.92	1113.38	0
1114.08	1113.55	0.001
1114.24	1113.67	0.001
1114.4	1113.82	0.001
1114.56	1114.04	0.001
1114.72	1114.25	0
1114.87	1114.36	0.001
1115.03	1114.52	0.001
1115.19	1114.63	0.001
1115.35	1114.84	0.001
1115.5	1114.98	0.001
1115.66	1115.13	0.001
1115.83	1115.3	0.001
1115.99	1115.48	0
1116.14	1115.64	0
1116.3	1115.77	0.001
1116.45	1115.9	0.001
1116.61	1116.03	0.001
1116.77	1116.23	0
1116.93	1116.37	0.001
1117.08	1116.55	0.001
1117.24	1116.65	0.001
1117.41	1116.83	0.001
1117.56	1117.02	0.001
1117.72	1117.22	0
1117.88	1117.3	0.001
1118.04	1117.5	0.001
1118.19	1117.67	0.001
1118.35	1117.84	0.001
1118.51	1117.95	0.001
1118.66	1118.1	0.001
1118.83	1118.26	0.001
1118.99	1118.48	0.001
1119.14	1118.6	0.001
1119.31	1118.75	0.001
1119.47	1118.91	0
1119.63	1119.06	0.001
1119.78	1119.24	0.001
1119.94	1119.39	0.001
1120.1	1119.52	0.001
1120.26	1119.71	0.001
1120.41	1119.91	0
1120.57	1120.05	0.001
1120.73	1120.2	0.001
1120.89	1120.35	0
1121.04	1120.52	0.001
1121.2	1120.67	0
1121.36	1120.81	0
1121.52	1120.92	0.001
1121.67	1121.15	0.001
1121.83	1121.32	0.001
1121.99	1121.45	0.001
1122.14	1121.6	0.001
1122.3	1121.78	0.001
1122.46	1121.93	0.001
1122.62	1122.11	0.001
1122.78	1122.25	0.001
1122.93	1122.4	0.001
1123.09	1122.54	0.001
1123.25	1122.77	0.001
1123.41	1122.92	0.001
1123.56	1123.05	0.001
1123.72	1123.18	0.001
1123.88	1123.34	0.001
1124.04	1123.54	0.001
1124.2	1123.65	0.001
1124.35	1123.8	0.001
1124.51	1123.95	0.001
1124.67	1124.16	0
1124.82	1124.3	0.001
1124.98	1124.48	0
1125.14	1124.57	0.001
1125.3	1124.79	0.001
1125.46	1124.96	0.001
1125.61	1125.14	0.001
1125.77	1125.25	0.001
1125.93	1125.4	0
1126.09	1125.61	0.001
1126.25	1125.78	0
1126.4	1125.88	0.001
1126.56	1125.98	0.001
1126.72	1126.1	0.001
1126.88	1126.31	0.001
1127.04	1126.5	0.001
1127.19	1126.62	0.001
1127.35	1126.79	0.001
1127.51	1127.02	0.001
1127.67	1127.15	-0
1127.82	1127.28	0.001
1127.99	1127.43	0.005
1128.14	1127.6	0.001
1128.3	1127.78	0
1128.46	1127.9	0.001
1128.62	1128.04	0.001
1128.77	1128.17	0.001
1128.93	1128.43	0.001
1129.1	1128.54	0.001
1129.25	1128.71	0.001
1129.41	1128.87	0.001
1129.57	1129	0.001
1129.73	1129.19	0.001
1129.88	1129.35	0
1130.04	1129.49	0.001
1130.2	1129.67	0.001
1130.36	1129.82	0.001
1130.52	1130.01	0.001
1130.68	1130.13	0.001
1130.84	1130.31	0.001
1131	1130.44	0
1131.15	1130.57	0.001
1131.31	1130.74	0.001
1131.47	1130.88	0.001
1131.63	1131.06	0.001
1131.78	1131.17	0.001
1131.94	1131.39	0.001
1132.1	1131.55	0.001
1132.27	1131.69	0.001
1132.42	1131.86	0.001
1132.58	1132.05	0.001
1132.74	1132.2	0.001
1132.89	1132.37	0.001
1133.05	1132.49	0.001
1133.22	1132.68	0.001
1133.37	1132.86	0.001
1133.53	1133.02	0.001
1133.69	1133.12	0.001
1133.84	1133.25	0.001
1134	1133.4	0.001
1134.16	1133.59	0.001
1134.32	1133.74	0.001
1134.47	1133.86	0
1134.64	1134.03	0.001
1134.8	1134.27	0.001
1134.96	1134.42	0.001
1135.11	1134.56	0
1135.27	1134.68	0.001
1135.43	1134.86	0.001
1135.58	1135.06	0.001
1135.74	1135.17	0.001
1135.9	1135.32	0
1136.06	1135.56	0.001
1136.21	1135.75	0.001
1136.37	1135.85	0.001
1136.53	1136.03	0.001
1136.68	1136.17	0.001
1136.84	1136.39	0.001
1137	1136.52	0.001
1137.16	1136.68	0
1137.32	1136.83	0.001
1137.47	1137.04	0.001
1137.63	1137.18	0.001
1137.79	1137.35	0
1137.94	1137.5	0.001
1138.1	1137.65	0
1138.26	1137.8	0.001
1138.42	1137.94	0.001
1138.58	1138.09	0.001
1138.73	1138.25	0.001
1138.89	1138.4	0.001
1139.05	1138.58	0.001
1139.21	1138.72	0.001
1139.36	1138.85	0.001
1139.52	1139.05	0.001
1139.68	1139.26	0
1139.84	1139.4	0
1140	1139.53	0
1140.15	1139.67	0.001
1140.31	1139.85	0.001
1140.47	1140.05	0
1140.63	1140.17	0.001
1140.78	1140.31	0.001
1140.95	1140.44	0.001
1141.1	1140.65	0.001
1141.26	1140.78	0.001
1141.42	1140.95	0.001
1141.58	1141.09	0.001
1141.73	1141.22	0.001
1141.89	1141.46	0.001
1142.05	1141.6	0
1142.21	1141.73	0.001
1142.36	1141.87	0.001
1142.52	1142.07	0.001
1142.68	1142.24	0
1142.83	1142.35	0.001
1142.99	1142.47	0.001
1143.15	1142.72	0.001
1143.31	1142.89	0
1143.47	1143.01	0.001
1143.62	1143.14	0.001
1143.78	1143.28	0.001
1143.94	1143.47	0.001
1144.1	1143.68	0.001
1144.25	1143.79	0.001
1144.41	1143.96	0.001
1144.57	1144.1	0.001
1144.73	1144.31	0.001
1144.88	1144.44	0.001
1145.04	1144.58	0.001
1145.2	1144.71	0.001
1145.36	1144.92	0
1145.51	1145.08	0
1145.67	1145.22	0.001
1145.83	1145.34	0.001
1145.99	1145.51	0.001
1146.14	1145.69	0.001
1146.3	1145.86	0.001
1146.46	1145.99	0.001
1146.63	1146.19	0.001
1146.79	1146.36	0.001
1146.95	1146.53	0.001
1147.11	1146.68	0.001
1147.27	1146.81	0.002
1147.44	1147.01	0.001
1147.6	1147.21	0
1147.75	1147.32	0.001
1147.92	1147.46	0.001
1148.07	1147.61	0
1148.23	1147.76	0.001
1148.39	1147.93	0.001
1148.55	1148.08	0.001
1148.71	1148.26	0.001
1148.86	1148.39	0.001
1149.02	1148.62	0.001
1149.18	1148.75	0.001
1149.34	1148.9	0.001
1149.5	1149.02	0.001
1149.65	1149.22	0.001
1149.81	1149.38	0.001
1149.97	1149.52	0.001
1150.13	1149.66	0.001
1150.28	1149.87	0.001
1150.44	1150.03	0.001
1150.6	1150.17	0.001
1150.76	1150.3	0.001
1150.92	1150.45	0.001
1151.08	1150.67	-0
1151.23	1150.81	0.001
1151.39	1150.97	0.001
1151.55	1151.14	0.001
1151.71	1151.29	0.001
1151.87	1151.47	0.001
1152.03	1151.61	0.001
1152.18	1151.74	0.001
1152.34	1151.88	0.001
1152.5	1152.06	0.001
1152.65	1152.26	0
1152.82	1152.37	0.001
1152.98	1152.5	0
1153.15	1152.69	0.001
1153.3	1152.9	0.001
1153.46	1153.03	0
1153.62	1153.16	0.001
1153.78	1153.34	0.001
1153.94	1153.52	0.003
1154.1	1153.68	0.001
1154.25	1153.83	0.001
1154.41	1153.98	0
1154.57	1154.12	0.001
1154.72	1154.31	0.001
1154.88	1154.45	0.001
1155.04	1154.62	0
1155.2	1154.76	-0.001
1155.36	1154.88	0.001
1155.51	1155.05	0.001
1155.67	1155.21	0.001
1155.83	1155.37	0
1155.99	1155.52	0.001
1156.15	1155.71	0.001
1156.31	1155.85	0.001
1156.47	1156.03	0
1156.63	1156.18	0.001
1156.78	1156.3	0.001
1156.94	1156.48	0
1157.1	1156.62	0.001
1157.26	1156.76	0.001
1157.43	1156.99	0
1157.58	1157.15	0.001
1157.74	1157.32	0.001
1157.9	1157.47	0.001
1158.06	1157.58	0
1158.21	1157.77	0.001
1158.37	1157.96	0
1158.53	1158.1	0.001
1158.69	1158.26	0.001
1158.85	1158.42	0.001
1159.01	1158.6	0
1159.16	1158.74	0.001
1159.32	1158.9	0.001
1159.48	1159.03	0.001
1159.63	1159.18	0.001
1159.79	1159.37	0
1159.95	1159.57	0
1160.11	1159.64	-0
1160.26	1159.78	0
1160.42	1160	0.001
1160.58	1160.19	0.001
1160.74	1160.28	0.001
1160.89	1160.41	0
1161.05	1160.63	0.001
1161.22	1160.86	0.001
1161.38	1160.97	0.001
1161.53	1161.11	0.001
1161.69	1161.27	0.004
1161.85	1161.5	0.001
1162.01	1161.62	0.001
1162.16	1161.77	0.001
1162.32	1161.92	0
1162.48	1162.1	0.001
1162.64	1162.24	0
1162.79	1162.38	0.001
1162.95	1162.53	0.001
1163.11	1162.68	0.001
1163.26	1162.89	0.001
1163.42	1163.02	0.001
1163.58	1163.16	0.001
1163.74	1163.32	0.001
1163.89	1163.5	0.001
1164.05	1163.66	0
1164.21	1163.8	0
1164.37	1163.93	0.001
1164.53	1164.17	0.001
1164.69	1164.32	0
1164.85	1164.47	0.001
1165.01	1164.63	-0
1165.17	1164.8	0.001
1165.32	1164.96	0.001
1165.48	1165.14	0
1165.64	1165.26	0.001
1165.8	1165.44	0
1165.96	1165.54	0.001
1166.11	1165.76	0.001
1166.27	1165.92	0
1166.43	1166.03	0.001
1166.59	1166.17	0.001
1166.75	1166.32	0.001
1166.9	1166.54	0.001
1167.06	1166.67	0.001
1167.22	1166.81	0.001
1167.38	1166.94	0.001
1167.53	1167.18	0.001
1167.69	1167.31	0
1167.85	1167.49	0.001
1168.01	1167.64	0.001
1168.17	1167.81	0.001
1168.32	1167.99	0.001
1168.48	1168.14	0.001
1168.64	1168.25	0.001
1168.8	1168.4	0.001
1168.96	1168.61	0.001
1169.11	1168.79	0
1169.27	1168.92	0.001
1169.43	1169.06	0.001
1169.59	1169.2	0
1169.75	1169.41	0.001
1169.9	1169.54	0.001
1170.06	1169.69	0.001
1170.22	1169.85	0
1170.38	1170.08	0.001
1170.53	1170.19	0.001
1170.69	1170.35	0.001
1170.85	1170.49	0.001
1171.01	1170.68	0
1171.17	1170.83	0.001
1171.32	1170.98	0.001
1171.48	1171.13	0
1171.64	1171.33	0.001
1171.8	1171.51	0.001
1171.96	1171.65	0.001
1172.12	1171.8	0.001
1172.28	1171.94	0
1172.43	1172.14	0.001
1172.59	1172.31	0.001
1172.75	1172.46	0.001
1172.91	1172.62	0.001
1173.07	1172.78	0
1173.22	1172.96	0
1173.38	1173.09	0.001
1173.54	1173.22	0.001
1173.7	1173.37	0.001
1173.86	1173.53	0
1174.02	1173.73	0
1174.18	1173.85	0.001
1174.33	1173.99	0.001
1174.49	1174.12	0.001
1174.65	1174.34	0.001
1174.82	1174.51	0.001
1174.97	1174.67	-0.001
1175.13	1174.82	0.001
1175.29	1175.01	0.001
1175.45	1175.16	0.001
1175.6	1175.3	0.001
1175.76	1175.43	0.001
1175.92	1175.61	0
1176.08	1175.81	0
1176.24	1175.93	0.001
1176.4	1176.09	0
1176.55	1176.22	0.001
1176.72	1176.37	0.001
1176.88	1176.53	0.001
1177.04	1176.71	0.001
1177.19	1176.83	0.001
1177.35	1176.99	0.001
1177.51	1177.21	0.001
1177.67	1177.38	0
1177.83	1177.5	0
1177.99	1177.66	0.001
1178.14	1177.81	0
1178.3	1177.99	0.001
1178.46	1178.13	0.001
1178.62	1178.24	0.003
1178.77	1178.45	0.001
1178.93	1178.61	0.001
1179.09	1178.75	0.001
1179.25	1178.9	0.001
1179.41	1179.06	0
1179.57	1179.23	0.001
1179.72	1179.4	0.001
1179.89	1179.57	0.001
1180.05	1179.71	0.001
1180.21	1179.88	0.001
1180.37	1180.07	0.001
1180.53	1180.22	0.001
1180.68	1180.36	0.001
1180.84	1180.52	0.001
1181	1180.66	0.001
1181.16	1180.85	0.001
1181.32	1180.97	0.001
1181.48	1181.13	0
1181.64	1181.28	0.001
1181.79	1181.46	0.004
1181.95	1181.64	0.001
1182.11	1181.8	0
1182.27	1181.92	0.001
1182.43	1182.12	0.001
1182.59	1182.31	0
1182.74	1182.46	0
1182.9	1182.59	0.001
1183.06	1182.73	0.001
1183.22	1182.95	0
1183.38	1183.11	0
1183.53	1183.23	0.001
1183.69	1183.39	0.001
1183.85	1183.49	0.001
1184.01	1183.71	0.001
1184.16	1183.85	0.001
1184.32	1184.01	0.001
1184.48	1184.16	0.001
1184.64	1184.38	0.001
1184.79	1184.53	0
1184.96	1184.69	0
1185.12	1184.83	0.001
1185.27	1184.99	0.001
1185.43	1185.16	0
1185.59	1185.31	0.001
1185.75	1185.45	0.001
1185.91	1185.67	0
1186.07	1185.84	0.001
1186.22	1185.98	0.001
1186.38	1186.12	0.001
1186.54	1186.28	0
1186.69	1186.47	0.001
1186.85	1186.64	0.001
1187.01	1186.78	0.001
1187.17	1186.93	0.001
1187.33	1187.08	0.001
1187.49	1187.27	0.001
1187.65	1187.41	0.001
1187.8	1187.53	0.001
1187.96	1187.69	0.001
1188.12	1187.88	0.001
1188.28	1188.05	0.001
1188.44	1188.18	0.001
1188.6	1188.3	0.001
1188.75	1188.47	0.001
1188.91	1188.66	0.001
1189.07	1188.82	0
1189.23	1188.95	0.001
1189.39	1189.16	0
1189.54	1189.31	0
1189.7	1189.47	0.001
1189.86	1189.62	0.001
1190.02	1189.77	0.001
1190.18	1189.93	0.001
1190.35	1190.13	0.001
1190.5	1190.29	0.001
1190.66	1190.42	0.001
1190.82	1190.57	0.001
1190.98	1190.69	0.001
1191.14	1190.86	0.001
1191.29	1191.01	0.001
1191.45	1191.14	0.001
1191.61	1191.31	0.001
1191.77	1191.48	0.001
1191.93	1191.65	0.001
1192.09	1191.81	0.001
1192.25	1191.98	0.001
1192.4	1192.09	0.001
1192.56	1192.29	0.001
1192.72	1192.42	0.001
1192.88	1192.6	0
1193.04	1192.77	0.001
1193.19	1192.94	0.001
1193.35	1193.11	0.001
1193.51	1193.26	0.001
1193.67	1193.4	0.001
1193.82	1193.6	0.001
1193.99	1193.78	0.001
1194.14	1193.93	0.001
1194.3	1194.07	0.001
1194.46	1194.23	0.001
1194.62	1194.43	0.001
1194.78	1194.58	0.001
1194.93	1194.71	0.001
1195.1	1194.85	0.001
1195.25	1195	0.001
1195.41	1195.21	0.001
1195.57	1195.36	0
1195.73	1195.49	0.001
1195.89	1195.63	0.001
1196.05	1195.85	0.001
1196.2	1196.01	0
1196.36	1196.14	0.001
1196.52	1196.33	0.001
1196.68	1196.51	0.001
1196.83	1196.68	0
1196.99	1196.83	0.001
1197.15	1196.99	-0
1197.31	1197.15	0.001
1197.46	1197.31	0.001
1197.62	1197.49	0
1197.78	1197.61	0
1197.94	1197.74	0.001
1198.1	1197.9	0.001
1198.26	1198.08	0.001
1198.42	1198.25	0
1198.57	1198.43	0.001
1198.73	1198.53	0.001
1198.89	1198.75	0.001
1199.05	1198.89	0.001
1199.21	1199.04	-0
1199.36	1199.17	0.001
1199.52	1199.32	0.001
1199.68	1199.5	0.001
1199.83	1199.64	0.001
1199.99	1199.8	0
1200.15	1199.98	0.001
1200.31	1200.16	0.001
1200.47	1200.31	0.001
1200.63	1200.48	0
1200.78	1200.61	0.001
1200.94	1200.81	0
1201.1	1200.98	0
1201.26	1201.11	0.001
1201.42	1201.26	0.001
1201.57	1201.4	0.001
1201.73	1201.6	0.001
1201.89	1201.72	0.001
1202.05	1201.87	0.005
1202.21	1202.02	0.001
1202.36	1202.23	0
1202.52	1202.37	0.001
1202.68	1202.54	0.001
1202.84	1202.67	0.001
1203	1202.81	0.001
1203.16	1203.01	0.001
1203.31	1203.17	0.001
1203.47	1203.33	0.001
1203.63	1203.48	0.001
1203.79	1203.63	0.001
1203.94	1203.8	0
1204.1	1203.93	0.001
1204.26	1204.07	0.001
1204.42	1204.19	0.001
1204.57	1204.4	0.001
1204.73	1204.57	0.001
1204.89	1204.71	0.001
1205.05	1204.85	0
1205.21	1204.98	0.001
1205.36	1205.19	0.001
1205.52	1205.34	0.001
1205.68	1205.5	0
1205.84	1205.65	0.001
1206	1205.84	0
1206.15	1205.99	0.001
1206.31	1206.15	0.001
1206.47	1206.32	0.001
1206.63	1206.45	0.001
1206.78	1206.63	0
1206.94	1206.77	0.001
1207.1	1206.93	0.001
1207.26	1207.11	0
1207.43	1207.27	0.001
1207.58	1207.44	0.001
1207.74	1207.6	0.001
1207.9	1207.75	0
1208.06	1207.91	0.001
1208.22	1208.09	0.001
1208.38	1208.24	0.001
1208.53	1208.4	0.001
1208.69	1208.53	0.001
1208.85	1208.75	0.001
1209.01	1208.9	0.001
1209.16	1209.05	0.001
1209.32	1209.19	0.001
1209.48	1209.36	0.001
1209.64	1209.53	0.001
1209.79	1209.68	0
1209.95	1209.82	0.001
1210.11	1209.97	0.001
1210.27	1210.16	0.001
1210.43	1210.31	0.001
1210.59	1210.49	0.001
1210.75	1210.65	0.001
1210.9	1210.83	0.001
1211.06	1210.97	0.001
1211.22	1211.15	0.001
1211.38	1211.27	0.001
1211.53	1211.41	0.001
1211.69	1211.6	0.001
1211.85	1211.76	0
1212.01	1211.91	0.001
1212.17	1212.06	0.001
1212.32	1212.19	0.001
1212.48	1212.37	0.001
1212.64	1212.52	0.001
1212.8	1212.68	0.001
1212.96	1212.82	0.001
1213.12	1213.04	0.001
1213.28	1213.19	0.001
1213.43	1213.34	0.001
1213.59	1213.49	0.001
1213.75	1213.64	0.001
1213.91	1213.8	0.001
1214.07	1213.96	0.001
1214.22	1214.1	0.001
1214.38	1214.29	0.001
1214.54	1214.47	0.001
1214.7	1214.62	0.002
1214.86	1214.78	0.001
1215.02	1214.92	0.001
1215.18	1215.12	0
1215.34	1215.26	0.001
1215.49	1215.43	0.001
1215.65	1215.58	0.001
1215.81	1215.73	0.001
1215.97	1215.9	0.001
1216.13	1216.05	0.001
1216.29	1216.21	0
1216.45	1216.34	0.001
1216.6	1216.5	0.001
1216.76	1216.67	0.001
1216.92	1216.81	0.001
1217.08	1216.95	0
1217.24	1217.1	0
1217.39	1217.26	0.001
1217.55	1217.45	0.001
1217.71	1217.58	0.001
1217.87	1217.72	0.001
1218.03	1217.89	0.001
1218.19	1218.09	0.001
1218.35	1218.23	0.001
1218.51	1218.38	0.001
1218.67	1218.53	0
1218.82	1218.73	0
1218.98	1218.89	0.001
1219.14	1219.04	0.001
1219.3	1219.16	0.001
1219.46	1219.3	0
1219.62	1219.5	0
1219.78	1219.65	0.001
1219.93	1219.81	0.001
1220.09	1219.95	0.001
1220.25	1220.17	0
1220.41	1220.31	0.001
1220.57	1220.48	0.001
1220.73	1220.65	0.001
1220.89	1220.77	0.001
1221.05	1220.94	0.001
1221.21	1221.1	0
1221.37	1221.26	0.001
1221.53	1221.44	0.001
1221.68	1221.62	0.001
1221.84	1221.78	0.001
1222	1221.96	0.001
1222.16	1222.09	0.001
1222.32	1222.29	0.001
1222.48	1222.44	0.001
1222.64	1222.61	0.001
1222.79	1222.77	0
1222.95	1222.92	0
1223.11	1223.09	0.001
1223.27	1223.25	0
1223.43	1223.38	0.001
1223.59	1223.52	0.001
1223.75	1223.7	0.001
1223.9	1223.88	0
1224.06	1224.01	0.001
1224.22	1224.15	0.001
1224.38	1224.29	0.001
1224.54	1224.48	0.001
1224.7	1224.64	0.001
1224.85	1224.8	0.001
1225.01	1225	0
1225.17	1225.14	0
1225.33	1225.3	0.002
1225.49	1225.46	0.001
1225.65	1225.59	0.001
1225.81	1225.74	0.001
1225.96	1225.94	0.001
1226.12	1226.09	0.001
1226.28	1226.22	0.001
1226.44	1226.4	0.001
1226.6	1226.52	0.001
1226.76	1226.72	0.001
1226.92	1226.86	0.001
1227.08	1227.02	0.001
1227.24	1227.17	0.001
1227.39	1227.37	0.001
1227.55	1227.52	0
1227.71	1227.66	0.001
1227.87	1227.82	0.001
1228.03	1227.97	0.001
1228.19	1228.15	0
1228.35	1228.3	0.001
1228.51	1228.44	0.001
1228.67	1228.63	0.001
1228.82	1228.82	0
1228.98	1228.97	0.001
1229.14	1229.11	0.001
1229.3	1229.25	0.001
1229.46	1229.44	0.001
1229.61	1229.59	0.001
1229.77	1229.74	0.001
1229.93	1229.9	0.001
1230.09	1230.03	0.001
1230.25	1230.24	-0
1230.41	1230.38	0
1230.57	1230.51	0.001
1230.73	1230.67	0.001
1230.89	1230.85	0
1231.05	1231.03	0
1231.21	1231.15	0.003
1231.37	1231.29	0.001
1231.53	1231.45	0.001
1231.69	1231.64	0.001
1231.84	1231.79	0.001
1232	1231.95	0
1232.16	1232.09	0.001
1232.32	1232.26	0.001
1232.48	1232.44	0.001
1232.64	1232.59	0.001
1232.79	1232.73	0.001
1232.95	1232.9	0
1233.11	1233.09	0.001
1233.27	1233.25	0.001
1233.43	1233.39	0.001
1233.58	1233.55	0.001
1233.75	1233.68	0
1233.9	1233.86	0.001
1234.06	1234.03	0.001
1234.22	1234.17	0.001
1234.38	1234.31	0.004
1234.54	1234.54	0.001
1234.69	1234.7	0.001
1234.85	1234.84	0.001
1235.01	1234.99	0.001
1235.17	1235.16	0.001
1235.33	1235.32	0.001
1235.49	1235.47	0.001
1235.65	1235.63	0.001
1235.81	1235.8	0.001
1235.96	1235.98	0.001
1236.12	1236.14	0
1236.28	1236.29	0.001
1236.44	1236.42	0.001
1236.6	1236.62	0.001
1236.75	1236.77	0.001
1236.91	1236.94	0.001
1237.07	1237.09	0.001
1237.23	1237.24	0.001
1237.39	1237.45	-0.001
1237.55	1237.57	0.002
1237.7	1237.72	0.001
1237.86	1237.86	0.001
1238.02	1238.02	0.004
1238.18	1238.2	0.001
1238.34	1238.36	0.001
1238.5	1238.49	0.001
1238.66	1238.66	0.001
1238.81	1238.84	0.001
1238.97	1238.99	0.001
1239.13	1239.16	0
1239.29	1239.33	0
1239.44	1239.49	0.001
1239.6	1239.64	0.001
1239.76	1239.8	0
1239.92	1239.95	0
1240.08	1240.08	0.001
1240.24	1240.28	0.001
1240.39	1240.45	0
1240.55	1240.58	0.001
1240.71	1240.73	0.001
1240.87	1240.88	0.001
1241.03	1241.05	0.001
1241.18	1241.2	0.001
1241.34	1241.35	0.001
1241.5	1241.48	0.001
1241.66	1241.67	0.001
1241.81	1241.83	0.001
1241.97	1241.96	0.001
1242.13	1242.17	-0.001
1242.29	1242.25	0.001
1242.44	1242.44	0.001
1242.6	1242.6	0
1242.76	1242.73	0.001
1242.92	1242.87	0.001
1243.08	1243.07	0.001
1243.24	1243.24	0.001
1243.39	1243.39	0.001
1243.55	1243.56	0.001
1243.71	1243.69	0.001
1243.87	1243.88	0.001
1244.03	1244.04	0
1244.18	1244.22	0
1244.34	1244.34	0.001
1244.5	1244.53	0.001
1244.66	1244.69	0
1244.81	1244.83	0.001
1244.97	1245	0.001
1245.13	1245.13	0.001
1245.29	1245.32	0.001
1245.45	1245.49	0
1245.6	1245.6	0.001
1245.76	1245.76	0.001
1245.92	1245.94	0.001
1246.08	1246.11	0.001
1246.24	1246.26	0.001
1246.4	1246.42	0.001
1246.55	1246.6	0.001
1246.71	1246.76	0.001
1246.87	1246.92	0.001
1247.03	1247.09	-0
1247.19	1247.22	0.001
1247.35	1247.44	0
1247.51	1247.58	0.001
1247.66	1247.73	0.001
1247.82	1247.9	0.001
1247.98	1248	0.001
1248.14	1248.19	0.001
1248.3	1248.35	0.001
1248.46	1248.49	0.001
1248.61	1248.64	0.001
1248.77	1248.84	0.001
1248.93	1248.99	0.001
1249.09	1249.16	0
1249.25	1249.32	0.001
1249.41	1249.44	0.001
1249.56	1249.61	0.001
1249.72	1249.77	0.001
1249.88	1249.92	0.001
1250.04	1250.04	0.001
1250.2	1250.24	0.001
1250.35	1250.42	0.001
1250.51	1250.58	0.001
1250.67	1250.72	0.001
1250.82	1250.87	0.001
1250.98	1251.05	0.001
1251.14	1251.2	0.001
1251.3	1251.35	0.001
1251.46	1251.52	0
1251.61	1251.67	0.001
1251.77	1251.85	0.001
1251.93	1251.98	0
1252.09	1252.17	0.001
1252.25	1252.28	0.001
1252.41	1252.46	0.001
1252.57	1252.61	0.001
1252.73	1252.77	0
1252.88	1252.92	0.001
1253.04	1253.08	0.001
1253.2	1253.26	0.001
1253.36	1253.4	0.001
1253.51	1253.55	0.001
1253.67	1253.7	0.001
1253.83	1253.9	0.001
1253.99	1254.05	0.001
1254.15	1254.2	0
1254.3	1254.34	0.001
1254.46	1254.52	0.001
1254.62	1254.71	0.001
1254.78	1254.84	0.001
1254.93	1254.97	0.001
1255.09	1255.09	0.001
1255.25	1255.28	0.001
1255.41	1255.47	0
1255.57	1255.62	0
1255.72	1255.78	0.001
1255.88	1255.94	0.001
1256.04	1256.13	0.001
1256.2	1256.27	0.001
1256.36	1256.4	0.002
1256.51	1256.55	0.001
1256.67	1256.74	0.001
1256.83	1256.89	0.001
1256.99	1257.06	0
1257.15	1257.2	0.001
1257.31	1257.4	0
1257.46	1257.56	0.001
1257.62	1257.72	0
1257.78	1257.89	0.001
1257.94	1258.02	0.001
1258.1	1258.18	0.001
1258.26	1258.34	0.001
1258.42	1258.51	0.001
1258.57	1258.67	0.001
1258.73	1258.82	0.001
1258.89	1258.99	0.001
1259.05	1259.13	0.001
1259.21	1259.3	0.001
1259.36	1259.45	0.001
1259.52	1259.6	0.001
1259.68	1259.78	0.001
1259.84	1259.92	0
1260	1260.1	-0.001
1260.15	1260.22	0.001
1260.31	1260.41	0.001
1260.47	1260.55	0.001
1260.63	1260.71	0.001
1260.78	1260.86	0
1260.94	1261.04	0.001
1261.1	1261.2	0
1261.26	1261.33	0.001
1261.42	1261.49	0.001
1261.58	1261.67	0.001
1261.74	1261.83	0.001
1261.89	1261.98	0.001
1262.05	1262.14	0
1262.21	1262.25	0.001
1262.37	1262.43	0
1262.53	1262.58	0.001
1262.68	1262.79	0
1262.84	1262.89	0.001
1263	1263.04	0.001
1263.16	1263.24	0.001
1263.32	1263.43	0.001
1263.47	1263.54	0.001
1263.63	1263.68	0.001
1263.79	1263.85	0.001
1263.95	1264.04	0.001
1264.11	1264.17	0.001
1264.26	1264.31	0.001
1264.43	1264.51	0.001
1264.59	1264.71	0.001
1264.75	1264.86	0.001
1264.9	1265.02	0.001
1265.06	1265.16	0.001
1265.22	1265.35	0.001
1265.38	1265.5	0.001
1265.53	1265.67	0.001
1265.69	1265.83	0.001
1265.85	1265.97	0.001
1266.01	1266.14	0.001
1266.17	1266.3	0
1266.32	1266.45	0.001
1266.48	1266.58	0.001
1266.65	1266.75	0.001
1266.81	1266.92	0.001
1266.97	1267.08	0.001
1267.13	1267.25	0.001
1267.28	1267.39	0.001
1267.44	1267.56	0.001
1267.6	1267.71	0.001
1267.76	1267.86	0.001
1267.92	1268.02	0.001
1268.08	1268.19	0.001
1268.23	1268.36	0.001
1268.39	1268.51	0.001
1268.55	1268.66	0.001
1268.71	1268.82	0.001
1268.86	1269.03	0
1269.02	1269.17	0.001
1269.18	1269.32	0
1269.34	1269.43	0
1269.5	1269.6	0.001
1269.65	1269.78	0.001
1269.81	1269.94	0.001
1269.97	1270.11	0.001
1270.13	1270.25	0.001
1270.29	1270.45	0.001
1270.45	1270.59	0.001
1270.61	1270.73	0.001
1270.76	1270.87	0.001
1270.92	1271.05	0.001
1271.08	1271.21	0.001
1271.24	1271.37	0.001
1271.4	1271.52	0.001
1271.56	1271.7	0
1271.71	1271.88	0.001
1271.95	1272.11	0.001
1272.11	1272.25	0.001
1272.26	1272.44	0.001
1272.42	1272.62	0
1272.58	1272.76	0.001
1272.74	1272.91	0.001
1272.9	1273.04	0
1273.06	1273.24	0.001
1273.21	1273.39	0
1273.37	1273.54	0.001
1273.53	1273.69	0
1273.69	1273.84	0.001
1273.85	1274.01	-0
1274	1274.13	0.004
1274.16	1274.3	0
1274.33	1274.44	0.001
1274.49	1274.6	0.001
1274.64	1274.78	0.001
1274.8	1274.93	0.001
1274.96	1275.09	0.001
1275.12	1275.25	0.001
1275.28	1275.42	0.001
1275.43	1275.59	0.001
1275.59	1275.74	0
1275.75	1275.86	0.001
1275.91	1276.05	0.001
1276.06	1276.22	0.001
1276.22	1276.35	0.001
1276.38	1276.5	0.001
1276.54	1276.61	0.001
1276.69	1276.83	0
1276.85	1276.99	0
1277.01	1277.15	0
1277.17	1277.28	0.001
1277.33	1277.45	0.001
1277.49	1277.64	0.001
1277.65	1277.78	0.001
1277.8	1277.91	0.001
1277.96	1278.06	0
1278.12	1278.25	0.001
1278.28	1278.41	0
1278.44	1278.55	0
1278.6	1278.69	0.001
1278.76	1278.88	0.001
1278.91	1279.07	0
1279.07	1279.23	0.001
1279.23	1279.39	0.001
1279.39	1279.51	0.001
1279.55	1279.69	0.001
1279.7	1279.86	0.001
1279.86	1280.02	0.001
1280.02	1280.17	0.001
1280.18	1280.34	0.001
1280.34	1280.5	0.001
1280.5	1280.65	0.001
1280.65	1280.79	0
1280.81	1280.91	0.001
1280.97	1281.11	0.001
1281.13	1281.3	0
1281.29	1281.42	0.001
1281.45	1281.59	0
1281.6	1281.75	0.001
1281.76	1281.93	0.001
1281.92	1282.06	0.001
1282.08	1282.23	0
1282.24	1282.38	0.001
1282.4	1282.58	0.001
1282.56	1282.72	0.001
1282.71	1282.87	0.001
1282.87	1283.01	0.001
1283.03	1283.2	0.001
1283.19	1283.37	0.001
1283.35	1283.51	0.001
1283.51	1283.66	0
1283.67	1283.77	0.001
1283.83	1283.95	0.001
1283.99	1284.12	0.001
1284.14	1284.28	0
1284.3	1284.46	0
1284.46	1284.6	-0
1284.62	1284.78	0.001
1284.77	1284.92	0.001
1284.93	1285.06	0.001
1285.09	1285.2	0.001
1285.25	1285.38	0.001
1285.4	1285.54	0.001
1285.56	1285.7	0.001
1285.72	1285.85	0.001
1285.88	1286.02	0
1286.04	1286.21	0.001
1286.19	1286.36	0.001
1286.35	1286.51	0.001
1286.51	1286.65	0
1286.67	1286.83	0
1286.83	1286.99	0
1286.99	1287.14	0.001
1287.15	1287.29	0.001
1287.31	1287.41	0.001
1287.46	1287.62	0.001
1287.62	1287.75	0.001
1287.78	1287.93	0.001
1287.94	1288.05	0.001
1288.1	1288.25	0.001
1288.26	1288.4	0
1288.42	1288.57	0.001
1288.57	1288.69	0.001
1288.73	1288.86	0.001
1288.89	1289.05	0
1289.05	1289.21	0.001
1289.21	1289.35	0.001
1289.36	1289.52	0
1289.52	1289.66	0.001
1289.68	1289.83	0.001
1289.84	1289.97	0.001
1290	1290.14	0.001
1290.16	1290.32	0
1290.32	1290.49	0.001
1290.47	1290.64	0.001
1290.63	1290.79	0
1290.79	1290.92	0.001
1290.95	1291.08	0.001
1291.1	1291.25	0.001
1291.26	1291.4	0.001
1291.42	1291.55	0.001
1291.58	1291.71	0.001
1291.73	1291.91	0.001
1291.89	1292.05	0.001
1292.05	1292.2	0.001
1292.21	1292.34	0.001
1292.37	1292.51	0.001
1292.53	1292.67	0.001
1292.68	1292.81	0.001
1292.84	1292.96	0.001
1293	1293.19	-0.003
1293.16	1293.34	0.001
1293.32	1293.49	0.001
1293.47	1293.64	0.001
1293.63	1293.78	0.001
1293.79	1293.98	0.001
1293.95	1294.15	0
1294.11	1294.29	0.001
1294.27	1294.45	0
1294.42	1294.57	0.001
1294.58	1294.77	0.001
1294.74	1294.92	0.001
1294.9	1295.07	0.001
1295.06	1295.2	0.001
1295.21	1295.39	0.001
1295.37	1295.54	0.001
1295.53	1295.72	0
1295.69	1295.84	0.001
1295.85	1295.99	0.001
1296.01	1296.19	0.001
1296.17	1296.35	0.001
1296.33	1296.5	0.001
1296.49	1296.67	0.001
1296.64	1296.82	0.001
1296.8	1296.98	0.001
1296.96	1297.13	0.001
1297.12	1297.27	0.001
1297.28	1297.41	0.001
1297.43	1297.61	0.001
1297.59	1297.77	0.001
1297.75	1297.92	0
1297.91	1298.08	0.001
1298.06	1298.2	0.001
1298.22	1298.36	0.001
1298.38	1298.53	0.001
1298.54	1298.67	0.002
1298.7	1298.81	0.001
1298.85	1299.01	0.001
1299.01	1299.16	0.001
1299.17	1299.33	0
1299.33	1299.5	0
1299.49	1299.6	0.001
1299.64	1299.8	0.001
1299.8	1299.92	0.001
1299.96	1300.08	0.001
1300.12	1300.22	0.001
1300.28	1300.4	0.001
1300.43	1300.58	0.001
1300.59	1300.74	0.001
1300.75	1300.91	0
1300.91	1301.04	0.001
1301.07	1301.21	0.001
1301.22	1301.38	0.001
1301.38	1301.54	0.001
1301.54	1301.68	0.001
1301.7	1301.83	0.001
1301.86	1302.01	0
1302.01	1302.15	0
1302.17	1302.3	0.001
1302.33	1302.43	0.001
1302.49	1302.61	0.001
1302.64	1302.77	0.001
1302.8	1302.91	0
1302.96	1303.05	0.001
1303.12	1303.2	0.001
1303.28	1303.39	0.001
1303.44	1303.54	0.001
1303.6	1303.69	0.001
1303.75	1303.85	0.001
1303.91	1304.03	0.001
1304.07	1304.18	0.001
1304.23	1304.33	0.001
1304.39	1304.5	0.001
1304.55	1304.65	0
1304.71	1304.83	0.001
1304.86	1304.95	0.001
1305.02	1305.13	0.001
1305.18	1305.25	0.001
1305.34	1305.42	0.001
1305.5	1305.61	0
1305.66	1305.75	0.001
1305.82	1305.89	0.001
1305.97	1306.06	0.001
1306.13	1306.25	0.001
1306.29	1306.4	0
1306.44	1306.53	0.001
1306.6	1306.68	0.001
1306.76	1306.85	0.001
1306.92	1307.02	0.001
1307.08	1307.16	0.001
1307.24	1307.31	0.001
1307.39	1307.5	0
1307.55	1307.68	0.001
1307.71	1307.83	0.001
1307.87	1307.99	0.001
1308.03	1308.12	0.001
1308.19	1308.32	0
1308.35	1308.47	0.001
1308.5	1308.63	0.001
1308.66	1308.78	0
1308.82	1308.9	0.001
1308.98	1309.09	0.001
1309.14	1309.23	0.001
1309.3	1309.39	0.001
1309.45	1309.54	0.001
1309.61	1309.72	0.001
1309.77	1309.87	0.001
1309.93	1310.01	0.001
1310.09	1310.17	0
1310.24	1310.3	0.001
1310.4	1310.49	0.001
1310.56	1310.65	0.001
1310.71	1310.81	0
1310.87	1310.95	0
1311.03	1311.12	0.001
1311.2	1311.3	0.001
1311.36	1311.45	0.001
1311.52	1311.59	0.001
1311.68	1311.75	0.001
1311.84	1311.93	0.001
1312	1312.09	0.001
1312.15	1312.23	0
1312.31	1312.36	0.001
1312.47	1312.5	0.001
1312.63	1312.7	0.001
1312.78	1312.85	0.001
1312.94	1313.01	0.001
1313.1	1313.16	0.001
1313.26	1313.36	0
1313.41	1313.5	0.001
1313.57	1313.65	0.001
1313.73	1313.82	0.001
1313.89	1313.92	0.001
1314.04	1314.1	0.001
1314.2	1314.28	0.001
1314.36	1314.42	0.001
1314.52	1314.55	0.001
1314.68	1314.74	0.001
1314.84	1314.92	0.001
1315	1315.07	0.001
1315.15	1315.23	0.002
1315.31	1315.35	0.001
1315.47	1315.53	0.001
1315.63	1315.71	0.001
1315.79	1315.83	0.001
1315.94	1316.01	0.001
1316.1	1316.17	0.001
1316.27	1316.35	0.001
1316.42	1316.49	0.001
1316.58	1316.64	0.001
1316.74	1316.77	0.001
1316.89	1316.97	-0
1317.05	1317.13	0.001
1317.21	1317.28	0.001
1317.37	1317.43	0.001
1317.53	1317.57	0.001
1317.69	1317.76	0.001
1317.85	1317.91	0.001
1318	1318.07	0
1318.16	1318.21	0.001
1318.32	1318.4	0
1318.48	1318.54	0
1318.64	1318.7	0.001
1318.8	1318.85	0.001
1318.96	1319.02	0.001
1319.12	1319.19	0
1319.28	1319.34	0
1319.43	1319.49	0.001
1319.59	1319.61	0.001
1319.75	1319.78	0.001
1319.91	1319.96	0.001
1320.07	1320.14	-0.001
1320.22	1320.29	0.001
1320.38	1320.42	0.001
1320.54	1320.62	0.001
1320.7	1320.76	0.001
1320.86	1320.9	0.001
1321.02	1321.03	0.001
1321.18	1321.22	0.001
1321.34	1321.39	0.001
1321.49	1321.51	0.001
1321.65	1321.66	0.001
1321.81	1321.84	0.001
1321.97	1322.04	0
1322.13	1322.18	0.001
1322.29	1322.34	0.001
1322.44	1322.48	0
1322.6	1322.67	0.001
1322.76	1322.81	0.001
1322.92	1322.98	0.001
1323.08	1323.12	0.001
1323.23	1323.26	0.001
1323.39	1323.43	0.001
1323.55	1323.61	0
1323.71	1323.75	0.001
1323.87	1323.88	0.001
1324.03	1324.06	0.001
1324.18	1324.22	0.001
1324.34	1324.39	0
1324.5	1324.52	0.001
1324.66	1324.66	0.001
1324.82	1324.86	0.001
1324.98	1325.01	0.001
1325.14	1325.18	0
1325.29	1325.35	0
1325.45	1325.49	0.001
1325.61	1325.65	0.001
1325.77	1325.81	-0
1325.93	1325.96	0
1326.09	1326.11	0.001
1326.24	1326.31	0
1326.4	1326.45	0
1326.56	1326.58	0.001
1326.72	1326.75	0.001
1326.87	1326.88	0.001
1327.03	1327.06	0.001
1327.19	1327.2	0.001
1327.35	1327.37	0.001
1327.5	1327.5	0.001
1327.66	1327.7	0.001
1327.82	1327.87	0
1327.98	1328.01	0.001
1328.14	1328.17	0.001
1328.29	1328.3	0.001
1328.45	1328.49	0
1328.61	1328.62	0.001
1328.77	1328.77	0.001
1328.93	1328.95	0.001
1329.08	1329.11	0.001
1329.24	1329.31	0
1329.41	1329.44	0.001
1329.57	1329.59	0.001
1329.73	1329.74	0.001
1329.88	1329.93	0.001
1330.04	1330.08	0
1330.2	1330.25	0
1330.36	1330.39	0
1330.52	1330.55	0.001
1330.68	1330.71	0.001
1330.83	1330.86	0.001
1330.99	1331.03	0.001
1331.15	1331.16	0.001
1331.31	1331.33	0.001
1331.47	1331.48	0.001
1331.63	1331.62	0.001
1331.78	1331.78	0.001
1331.94	1331.93	0.001
1332.1	1332.12	0.001
1332.26	1332.27	0.001
1332.42	1332.42	0.001
1332.57	1332.58	0.001
1332.73	1332.76	0.001
1332.89	1332.9	0.001
1333.05	1333.05	0.001
1333.21	1333.21	0
1333.36	1333.37	0.001
1333.52	1333.56	0
1333.68	1333.68	0.001
1333.83	1333.82	0.001
1333.99	1333.94	0.001
1334.15	1334.1	0.001
1334.31	1334.3	0.001
1334.46	1334.45	0
1334.62	1334.57	0.001
1334.78	1334.74	0
1334.94	1334.93	0.001
1335.1	1335.07	0.001
1335.25	1335.22	0
1335.41	1335.36	0.001
1335.57	1335.54	0
1335.73	1335.69	0.001
1335.89	1335.83	0.001
1336.05	1335.99	0.001
1336.2	1336.18	0.001
1336.36	1336.37	0.001
1336.52	1336.51	0.001
1336.68	1336.64	0.002
1336.83	1336.79	0.001
1336.99	1336.99	0.001
1337.15	1337.15	0.001
1337.31	1337.31	0
1337.47	1337.44	0.001
1337.62	1337.59	0.001
1337.78	1337.76	0.001
1337.94	1337.92	0.001
1338.1	1338.07	0.001
1338.25	1338.23	0
1338.41	1338.37	0.001
1338.57	1338.56	0.001
1338.73	1338.69	0.001
1338.89	1338.86	0.001
1339.05	1338.98	0.001
1339.21	1339.16	0.001
1339.36	1339.34	0.001
1339.52	1339.51	0.001
1339.68	1339.62	0.001
1339.84	1339.8	0.001
1340	1339.97	0.001
1340.15	1340.16	0.001
1340.31	1340.28	0.001
1340.47	1340.45	0.001
1340.63	1340.64	0.001
1340.78	1340.79	0.001
1340.94	1340.93	0.001
1341.1	1341.09	0.001
1341.26	1341.21	0
1341.42	1341.37	0.001
1341.57	1341.55	0.001
1341.73	1341.68	0.001
1341.89	1341.84	0.001
1342.05	1342.03	0.001
1342.21	1342.2	0.001
1342.37	1342.3	0.001
1342.53	1342.44	0.001
1342.68	1342.59	0.001
1342.84	1342.8	0.001
1343	1342.93	0.001
1343.16	1343.09	0.001
1343.32	1343.22	0.001
1343.47	1343.45	0.001
1343.64	1343.61	0.001
1343.8	1343.77	0.001
1343.96	1343.93	0
1344.11	1344.08	-0
1344.27	1344.25	0.001
1344.43	1344.4	0.001
1344.59	1344.53	0.003
1344.75	1344.69	0.001
1344.9	1344.83	0.001
1345.06	1345.05	0
1345.22	1345.18	0.001
1345.38	1345.31	0.001
1345.54	1345.47	0.001
1345.69	1345.65	0.001
1345.85	1345.81	0.001
1346.01	1345.95	0
1346.17	1346.11	0.001
1346.32	1346.25	0.001
1346.48	1346.46	0
1346.64	1346.6	0
1346.8	1346.74	0.001
1346.96	1346.89	0.001
1347.11	1347.09	0.001
1347.27	1347.22	0.001
1347.43	1347.38	0.001
1347.59	1347.51	0.001
1347.75	1347.67	0.001
1347.91	1347.86	0.001
1348.07	1347.98	0.001
1348.22	1348.14	0.001
1348.38	1348.27	0.001
1348.54	1348.45	0.001
1348.7	1348.62	0
1348.86	1348.79	0.001
1349.02	1348.97	0.001
1349.18	1349.1	0.001
1349.33	1349.29	0
1349.49	1349.44	0.001
1349.65	1349.59	0.001
1349.81	1349.74	0
1349.97	1349.91	0.001
1350.13	1350.06	0.001
1350.28	1350.2	0
1350.44	1350.35	0
1350.6	1350.53	0.001
1350.76	1350.73	0.001
1350.92	1350.87	0.001
1351.07	1351.02	0.001
1351.23	1351.16	0.001
1351.39	1351.35	0.001
1351.55	1351.5	-0
1351.71	1351.67	0.001
1351.86	1351.82	0.001
1352.03	1351.98	0.001
1352.18	1352.16	0.001
1352.34	1352.3	0.001
1352.5	1352.45	0.001
1352.66	1352.6	0.001
1352.81	1352.77	0.001
1352.97	1352.97	0
1353.13	1353.09	0.001
1353.29	1353.23	0
1353.45	1353.35	0.001
1353.6	1353.57	0
1353.76	1353.72	0
1353.92	1353.85	0
1354.08	1354.01	0.001
1354.24	1354.17	0
1354.39	1354.33	0.001
1354.55	1354.48	0
1354.71	1354.61	0.001
1354.86	1354.77	0.001
1355.02	1354.97	0.001
1355.18	1355.12	0.001
1355.34	1355.25	0.001
1355.5	1355.42	0.001
1355.65	1355.54	0
1355.81	1355.74	0.001
1355.97	1355.9	-0
1356.13	1356.04	0.001
1356.29	1356.19	0
1356.45	1356.38	0.001
1356.6	1356.52	0.001
1356.76	1356.67	0
1356.92	1356.85	0.001
1357.08	1356.96	0.001
1357.24	1357.17	0
1357.39	1357.34	-0.003
1357.55	1357.44	0.001
1357.71	1357.64	0.001
1357.87	1357.82	0.001
1358.03	1357.98	0.001
1358.18	1358.13	0.001
1358.34	1358.27	0.001
1358.5	1358.44	0.001
1358.66	1358.61	0.001
1358.82	1358.77	0
1358.97	1358.93	0
1359.13	1359.05	0.001
1359.29	1359.22	0.001
1359.45	1359.37	0.001
1359.61	1359.52	0.001
1359.76	1359.7	0.001
1359.92	1359.8	0.001
1360.08	1359.99	0.001
1360.24	1360.14	0.001
1360.39	1360.28	0.001
1360.55	1360.45	0
1360.71	1360.57	0.001
1360.87	1360.76	0.001
1361.03	1360.9	0.001
1361.19	1361.05	0.001
1361.34	1361.23	0.001
1361.5	1361.42	-0.001
1361.66	1361.55	0.001
1361.81	1361.71	0.001
1361.97	1361.86	0.001
1362.13	1362.04	0.001
1362.29	1362.21	0.001
1362.45	1362.35	0
1362.6	1362.49	0.001
1362.76	1362.63	0
1362.92	1362.78	0.001
1363.08	1362.96	0.001
1363.24	1363.1	0.001
1363.39	1363.25	0.001
1363.55	1363.41	0
1363.71	1363.63	0
1363.87	1363.77	0.001
1364.03	1363.91	0.001
1364.19	1364.03	0.001
1364.35	1364.22	0
1364.5	1364.4	0.001
1364.66	1364.52	0.001
1364.82	1364.69	0
1364.98	1364.88	0.001
1365.14	1365.05	0
1365.29	1365.21	0
1365.45	1365.42	0
1365.61	1365.48	0.001
1365.77	1365.69	0.001
1365.93	1365.82	0.001
1366.08	1366.03	0.001
1366.24	1366.12	0.001
1366.4	1366.29	0
1366.56	1366.46	0.001
1366.72	1366.65	0
1366.89	1366.75	0.001
1367.05	1366.89	0.001
1367.21	1367.09	0
1367.36	1367.28	0.001
1367.52	1367.41	0
1367.68	1367.52	0.001
1367.84	1367.72	0
1368	1367.93	0.001
1368.16	1368.07	0.001
1368.32	1368.2	0.001
1368.47	1368.36	0.001
1368.63	1368.54	0
1368.79	1368.69	0.001
1368.95	1368.86	0.001
1369.11	1369.02	0.001
1369.27	1369.16	0
1369.43	1369.33	0.002
1369.58	1369.48	0.001
1369.74	1369.62	0.001
1369.9	1369.77	0.001
1370.06	1369.9	0.001
1370.22	1370.09	0.001
1370.38	1370.25	0.001
1370.54	1370.4	0.001
1370.69	1370.55	0.001
1370.85	1370.74	0
1371.01	1370.87	0.001
1371.18	1371.03	0
1371.34	1371.19	0.001
1371.49	1371.35	0.001
1371.65	1371.53	0.001
1371.82	1371.67	0.001
1371.98	1371.8	0.001
1372.14	1372	0.001
1372.29	1372.2	0
1372.45	1372.35	0.001
1372.61	1372.49	0.001
1372.76	1372.61	0.001
1372.93	1372.79	0.001
1373.08	1372.97	0.001
1373.24	1373.11	0
1373.4	1373.26	0.001
1373.56	1373.39	0.001
1373.72	1373.59	0.001
1373.88	1373.74	0
1374.03	1373.9	0.001
1374.19	1374.04	0.001
1374.35	1374.17	0.001
1374.51	1374.37	0
1374.67	1374.54	0.001
1374.82	1374.66	0.001
1374.98	1374.81	0
1375.14	1374.98	0.001
1375.3	1375.16	0.001
1375.46	1375.29	0.001
1375.61	1375.42	0
1375.77	1375.58	0.001
1375.93	1375.78	0
1376.09	1375.94	0.001
1376.25	1376.09	0.001
1376.41	1376.22	0.001
1376.56	1376.44	0.001
1376.72	1376.59	0.001
1376.88	1376.74	0.001
1377.04	1376.86	0.001
1377.2	1377.01	0.001
1377.36	1377.2	0.001
1377.51	1377.37	0.001
1377.67	1377.53	0.001
1377.83	1377.69	0
1377.99	1377.86	0
1378.15	1378.02	0.001
1378.3	1378.15	0.001
1378.46	1378.27	0.001
1378.62	1378.42	0.001
1378.78	1378.61	0.001
1378.94	1378.78	0.001
1379.1	1378.91	0.001
1379.25	1379.04	0.001
1379.41	1379.27	0.001
1379.57	1379.45	0
1379.73	1379.59	0.001
1379.89	1379.76	0.001
1380.05	1379.91	0
1380.21	1380.1	0
1380.36	1380.25	0.001
1380.52	1380.39	0.001
1380.69	1380.54	0.001
1380.85	1380.72	0.001
1381	1380.89	0.001
1381.16	1381.02	0
1381.32	1381.15	0.001
1381.48	1381.29	0.001
1381.64	1381.5	0.001
1381.79	1381.65	0.001
1381.96	1381.8	0.001
1382.12	1381.96	0
1382.28	1382.13	0.001
1382.44	1382.32	0
1382.6	1382.47	0
1382.75	1382.59	0
1382.91	1382.75	0.001
1383.07	1382.94	0.001
1383.23	1383.09	0
1383.39	1383.23	-0
1383.54	1383.36	0.001
1383.7	1383.54	0.001
1383.86	1383.72	0.002
1384.02	1383.88	0.001
1384.18	1384	0.001
1384.33	1384.14	0.001
1384.49	1384.31	0
1384.65	1384.52	0
1384.81	1384.63	0.001
1384.97	1384.76	0
1385.13	1384.92	0.001
1385.28	1385.13	0.001
1385.44	1385.24	0.001
1385.6	1385.39	0.001
1385.76	1385.54	0.001
1385.92	1385.7	0.001
1386.08	1385.87	0.001
1386.24	1386.01	0.001
1386.39	1386.15	0.001
1386.55	1386.36	0.001
1386.71	1386.55	0.001
1386.87	1386.7	-0
1387.03	1386.86	0
1387.19	1386.99	0.001
1387.35	1387.16	0.001
1387.5	1387.34	0.001
1387.66	1387.48	0
1387.82	1387.61	0
1387.98	1387.73	0.004
1388.14	1387.91	0.001
1388.29	1388.07	0.001
1388.45	1388.25	-0.003
1388.61	1388.38	0.001
1388.77	1388.53	0.001
1388.93	1388.7	0.001
1389.09	1388.85	0
1389.25	1388.98	0
1389.41	1389.16	0.001
1389.57	1389.3	0.001
1389.72	1389.5	0.001
1389.88	1389.64	0
1390.04	1389.79	0.001
1390.2	1389.94	0.001
1390.36	1390.13	0.001
1390.51	1390.28	0.001
1390.67	1390.45	0.001
1390.83	1390.57	0
1390.99	1390.77	0.001
1391.15	1390.94	0.001
1391.31	1391.1	0
1391.47	1391.19	0.001
1391.62	1391.32	0.001
1391.78	1391.56	0.001
1391.94	1391.71	0.001
1392.1	1391.86	0.001
1392.26	1392.01	0.001
1392.42	1392.21	0.002
1392.58	1392.38	0.001
1392.74	1392.51	0.001
1392.89	1392.69	0.001
1393.05	1392.78	0
1393.21	1392.94	0.001
1393.37	1393.14	0.001
1393.53	1393.28	0.001
1393.68	1393.49	0.001
1393.84	1393.66	0.001
1394	1393.84	0.001
1394.16	1393.99	0.001
1394.32	1394.12	0.001
1394.47	1394.3	0.001
1394.63	1394.46	0.001
1394.79	1394.61	0.001
1394.95	1394.76	0.001
1395.11	1394.91	0
1395.27	1395.08	0
1395.43	1395.21	0.001
1395.59	1395.36	0.001
1395.75	1395.55	0.001
1395.9	1395.66	0.001
1396.06	1395.85	0.001
1396.22	1396.02	0.001
1396.38	1396.15	0.001
1396.54	1396.3	0.001
1396.69	1396.48	0
1396.85	1396.68	0
1397.02	1396.8	0.001
1397.18	1396.94	0.001
1397.33	1397.12	0.001
1397.49	1397.31	0.001
1397.65	1397.46	0.001
1397.81	1397.58	0
1397.97	1397.73	0.001
1398.13	1397.9	0.001
1398.28	1398.09	0
1398.44	1398.22	0
1398.6	1398.34	0.001
1398.76	1398.48	0.001
1398.92	1398.66	0.001
1399.08	1398.83	0.001
1399.24	1399	0.001
1399.4	1399.15	0.001
1399.56	1399.31	0.001
1399.71	1399.48	0.001
1399.87	1399.61	0.001
1400.04	1399.76	0.001
1400.19	1399.9	0.001
1400.35	1400.07	0.001
1400.51	1400.24	0
1400.67	1400.39	0
1400.83	1400.5	0.001
1400.99	1400.72	0.001
1401.14	1400.9	0.001
1401.3	1401.06	0.001
1401.46	1401.2	0.001
1401.62	1401.34	0.001
1401.78	1401.52	0
1401.93	1401.7	0.001
1402.09	1401.83	0.001
1402.25	1401.96	0.001
1402.41	1402.1	0.001
1402.57	1402.35	0.001
1402.73	1402.46	0.001
1402.89	1402.61	0
1403.05	1402.73	0.001
1403.21	1402.92	0.001
1403.36	1403.11	0.001
1403.52	1403.26	0.001
1403.68	1403.38	0.001
1403.84	1403.58	-0.001
1404	1403.76	0
1404.16	1403.89	0.001
1404.31	1404.03	0.001
1404.47	1404.22	0.001
1404.63	1404.36	0
1404.79	1404.54	0.001
1404.95	1404.69	0.001
1405.11	1404.81	0.001
1405.27	1404.98	0.001
1405.43	1405.18	0.001
1405.58	1405.34	0.001
1405.74	1405.47	0.001
1405.9	1405.62	0.001
1406.06	1405.74	0.001
1406.22	1405.96	0.001
1406.38	1406.12	0
1406.54	1406.25	0
1406.7	1406.41	0.001
1406.85	1406.6	0.001
1407.01	1406.77	0.001
1407.18	1406.89	0.001
1407.33	1407.04	0.001
1407.49	1407.18	-0
1407.65	1407.37	0
1407.81	1407.5	0.001
1407.97	1407.66	0.001
1408.13	1407.84	0.001
1408.29	1408.04	0.001
1408.45	1408.18	0
1408.6	1408.35	0.001
1408.76	1408.45	0.001
1408.92	1408.66	0.001
1409.08	1408.82	0.001
1409.24	1409.01	0.001
1409.4	1409.11	0.001
1409.56	1409.26	0.001
1409.72	1409.47	0
1409.88	1409.61	0.001
1410.04	1409.73	0.001
1410.19	1409.89	0.001
1410.35	1410.04	0.001
1410.51	1410.22	0.001
1410.67	1410.39	0
1410.83	1410.5	0.001
1410.99	1410.66	0
1411.14	1410.86	0.001
1411.3	1411.03	0.001
1411.46	1411.16	0.001
1411.62	1411.28	0.001
1411.78	1411.48	0.001
1411.94	1411.67	0
1412.1	1411.79	0.001
1412.25	1411.94	0
1412.41	1412.1	0.001
1412.57	1412.31	0.001
1412.73	1412.44	0.001
1412.89	1412.58	0.001
1413.05	1412.7	0.001
1413.21	1412.86	0.001
1413.37	1413.04	0.001
1413.53	1413.21	0.001
1413.68	1413.35	0.001
1413.84	1413.49	0.001
1414	1413.64	0.001
1414.16	1413.8	0.001
1414.32	1413.93	0.001
1414.47	1414.07	0.001
1414.64	1414.26	0.001
1414.79	1414.38	0
1414.95	1414.55	0
1415.11	1414.7	0.001
1415.27	1414.82	0.001
1415.43	1415.04	0.001
1415.59	1415.27	0.001
1415.75	1415.41	0.001
1415.91	1415.6	0.001
1416.07	1415.71	0
1416.22	1415.9	0.001
1416.38	1416.06	0.001
1416.54	1416.2	0.001
1416.7	1416.31	0.001
1416.86	1416.48	-0
1417.02	1416.66	0.001
1417.18	1416.8	0.001
1417.33	1416.96	0.001
1417.49	1417.07	0.001
1417.65	1417.24	0.001
1417.81	1417.41	0.001
1417.97	1417.61	0.001
1418.13	1417.71	0.001
1418.28	1417.88	0.001
1418.44	1418.09	0
1418.6	1418.28	0.001
1418.76	1418.38	0.001
1418.92	1418.58	0.001
1419.07	1418.78	0
1419.23	1418.96	0.001
1419.39	1419.08	0.001
1419.55	1419.22	0.001
1419.71	1419.4	0.001
1419.87	1419.61	0.001
1420.03	1419.75	0.001
1420.19	1419.88	0.001
1420.35	1420.02	0.001
1420.51	1420.23	0.001
1420.67	1420.36	0.001
1420.83	1420.51	0.001
1420.99	1420.67	0
1421.14	1420.8	0.001
1421.3	1421	0.001
1421.46	1421.13	0.001
1421.62	1421.29	0
1421.78	1421.42	0.001
1421.94	1421.6	0.001
1422.27	1421.92	0
1422.44	1422.05	0.001
1422.6	1422.31	0.001
1422.75	1422.47	0
1422.91	1422.61	0.001
1423.07	1422.77	0.001
1423.23	1422.91	0.001
1423.39	1423.1	0.001
1423.55	1423.27	0
1423.71	1423.4	0.001
1423.86	1423.54	0.001
1424.02	1423.7	0.001
1424.18	1423.91	0.001
1424.34	1424.03	0.001
1424.5	1424.17	0.001
1424.66	1424.29	0.001
1424.82	1424.52	0.001
1424.97	1424.67	0.001
1425.13	1424.84	0
1425.29	1424.98	0
1425.45	1425.14	0.001
1425.61	1425.32	0.001
1425.76	1425.46	0.001
1425.92	1425.58	0.001
1426.08	1425.73	0.001
1426.24	1425.93	0.001
1426.4	1426.06	0.001
1426.56	1426.23	0.001
1426.71	1426.31	0.001
1426.87	1426.47	0.001
1427.04	1426.69	0
1427.19	1426.9	0.001
1427.36	1426.97	0.001
1427.52	1427.13	0.001
1427.68	1427.25	0.001
1427.84	1427.47	0.001
1428	1427.63	0
1428.16	1427.74	0.001
1428.32	1427.91	0
1428.47	1428.14	0.001
1428.63	1428.28	0
1428.79	1428.4	0.001
1428.95	1428.56	0
1429.11	1428.7	0.001
1429.27	1428.9	0
1429.43	1429.04	0.001
1429.59	1429.17	0.001
1429.75	1429.41	0.001
1429.91	1429.6	0.001
1430.07	1429.76	0
1430.23	1429.94	0.001
1430.39	1430.04	0
1430.55	1430.22	0.001
1430.7	1430.39	-0
1430.86	1430.53	0
1431.02	1430.64	0.001
1431.18	1430.81	0.001
1431.34	1430.98	0.001
1431.5	1431.11	0.001
1431.66	1431.26	0.001
1431.82	1431.43	0.001
1431.97	1431.59	0.001
1432.13	1431.79	0
1432.29	1431.92	0.001
1432.45	1432.06	0.001
1432.61	1432.23	0
1432.77	1432.42	0.001
1432.93	1432.6	0.001
1433.09	1432.71	0.001
1433.25	1432.9	0
1433.41	1433.04	0.001
1433.56	1433.25	0.001
1433.72	1433.36	0.001
1433.88	1433.5	0.001
1434.04	1433.64	0.001
1434.2	1433.87	0.001
1434.36	1434	0.001
1434.52	1434.17	0
1434.68	1434.3	0
1434.83	1434.44	0
1434.99	1434.63	0.001
1435.15	1434.8	0.001
1435.31	1434.91	0.001
1435.47	1435.08	0.001
1435.62	1435.29	0.001
1435.78	1435.43	0.001
1435.94	1435.54	0.001
1436.1	1435.7	0.001
1436.26	1435.8	0.001
1436.42	1435.98	0.001
1436.57	1436.17	0.001
1436.73	1436.3	0
1436.89	1436.5	0.001
1437.05	1436.73	0.001
1437.21	1436.86	0.001
1437.37	1437.01	0.001
1437.53	1437.15	0.001
1437.69	1437.38	-0.002
1437.85	1437.51	0.001
1438	1437.67	-0.002
1438.16	1437.78	0
1438.32	1437.94	0.001
1438.48	1438.13	0.001
1438.64	1438.24	0.001
1438.8	1438.41	0.001
1438.96	1438.6	-0.003
1439.12	1438.7	0
1439.28	1438.86	0.001
1439.44	1439	0.001
1439.59	1439.13	0.001
1439.75	1439.3	0.001
1439.91	1439.46	0.001
1440.07	1439.66	0.001
1440.23	1439.78	0.001
1440.39	1439.9	0.001
1440.54	1440.07	0.001
1440.7	1440.25	0.001
1440.86	1440.44	0
1441.02	1440.58	0
1441.18	1440.71	0.001
1441.34	1440.85	0.001
1441.5	1441.04	0
1441.65	1441.19	0.001
1441.81	1441.35	-0
1441.97	1441.47	0.001
1442.13	1441.6	0.001
1442.29	1441.78	0.001
1442.45	1441.94	0.001
1442.61	1442.11	0
1442.77	1442.24	0.001
1442.93	1442.42	0.001
1443.09	1442.58	0.001
1443.25	1442.75	0.001
1443.4	1442.88	0.001
1443.56	1443	0.001
1443.72	1443.2	0.001
1443.88	1443.37	0.001
1444.04	1443.47	0.001
1444.2	1443.68	0.001
1444.36	1443.93	0.001
1444.52	1444.11	0.001
1444.68	1444.28	0.001
1444.83	1444.39	0.001
1444.99	1444.6	0
1445.15	1444.74	0.005
1445.31	1444.9	-0
1445.47	1445.06	0.001
1445.62	1445.25	0.001
1445.78	1445.44	0.001
1445.94	1445.54	0.001
1446.1	1445.66	0.001
1446.26	1445.81	0.001
1446.42	1446.05	0.001
1446.57	1446.17	0.001
1446.73	1446.3	0.001
1446.89	1446.48	0.001
1447.05	1446.68	0.001
1447.21	1446.84	0
1447.37	1446.96	0.001
1447.53	1447.1	0.001
1447.68	1447.28	0.001
1447.84	1447.45	0.001
1448	1447.62	0.001
1448.16	1447.75	0.001
1448.32	1447.91	0.001
1448.48	1448.07	0.001
1448.64	1448.26	0.001
1448.79	1448.41	0
1448.95	1448.54	0.001
1449.11	1448.69	0.001
1449.27	1448.85	0.001
1449.43	1449.04	0.001
1449.59	1449.17	0
1449.75	1449.33	0.001
1449.9	1449.45	0.001
1450.06	1449.68	0.001
1450.22	1449.82	0
1450.38	1449.95	0.001
1450.54	1450.07	0.001
1450.7	1450.25	0.001
1450.85	1450.43	0.001
1451.01	1450.59	0.001
1451.17	1450.73	0
1451.33	1450.94	0.001
1451.49	1451.12	0
1451.65	1451.25	0.001
1451.8	1451.38	0.001
1451.96	1451.52	0
1452.12	1451.71	0.001
1452.28	1451.86	0.001
1452.44	1452.01	0.001
1452.6	1452.11	0.001
1452.75	1452.28	0
1452.91	1452.49	0.001
1453.07	1452.66	0.001
1453.23	1452.77	0.001
1453.39	1452.93	0.001
1453.54	1453.09	0.001
1453.7	1453.31	0.001
1453.86	1453.44	0.001
1454.02	1453.56	0.001
1454.18	1453.74	0.001
1454.34	1453.96	0.001
1454.5	1454.08	0.001
1454.65	1454.21	0.001
1454.81	1454.37	0.001
1454.97	1454.57	0.001
1455.13	1454.76	0.001
1455.29	1454.9	0.001
1455.45	1455.01	-0
1455.6	1455.18	0.001
1455.76	1455.39	0.001
1455.92	1455.53	0.001
1456.08	1455.66	0.001
1456.24	1455.8	0.001
1456.4	1455.95	0.001
1456.56	1456.17	0
1456.72	1456.3	0.001
1456.88	1456.43	0.001
1457.04	1456.59	0.001
1457.19	1456.8	0.001
1457.35	1456.95	0.001
1457.51	1457.06	0.001
1457.67	1457.23	0.001
1457.83	1457.39	0.002
1457.99	1457.57	0.001
1458.15	1457.73	0.001
1458.31	1457.84	0.001
1458.47	1458.06	0.001
1458.63	1458.3	0.001
1458.78	1458.43	0.001
1458.94	1458.59	0.001
1459.1	1458.69	0.001
1459.26	1458.89	0.001
1459.42	1459.05	0.001
1459.58	1459.17	0.001
1459.74	1459.32	0
1459.9	1459.44	0.001
1460.06	1459.65	0.001
1460.22	1459.77	0.001
1460.38	1459.91	0.003
1460.53	1460.09	0.001
1460.69	1460.27	0.001
1460.85	1460.43	0.001
1461.01	1460.57	0.001
1461.17	1460.71	0
1461.33	1460.86	0.001
1461.48	1461.05	0.001
1461.64	1461.22	0.001
1461.8	1461.33	0.001
1461.96	1461.46	0.001
1462.12	1461.65	0.001
1462.28	1461.88	0.001
1462.44	1462	0.001
1462.6	1462.11	0.001
1462.76	1462.27	0.001
1462.92	1462.53	0.001
1463.07	1462.66	0.001
1463.23	1462.78	0.001
1463.39	1462.9	0.001
1463.55	1463.09	0.001
1463.71	1463.31	0.001
1463.86	1463.45	0.001
1464.03	1463.57	0.001
1464.18	1463.74	0.001
1464.34	1463.93	0.001
1464.5	1464.04	0.001
1464.66	1464.16	0.001
1464.82	1464.3	0.001
1464.97	1464.44	0.001
1465.13	1464.61	0.001
1465.29	1464.75	0.001
1465.45	1464.92	0.002
1465.61	1465.05	0.001
1465.77	1465.33	0.001
1465.93	1465.47	0.001
1466.08	1465.62	0.001
1466.24	1465.8	0
1466.4	1465.94	0.001
1466.56	1466.1	0.001
1466.72	1466.27	0.001
1466.88	1466.39	0.001
1467.04	1466.56	0.001
1467.19	1466.68	0
1467.35	1466.87	0
1467.51	1467.02	0.001
1467.67	1467.23	0.001
1467.82	1467.35	-0.002
1467.98	1467.54	0.001
1468.14	1467.69	0.001
1468.3	1467.85	0.001
1468.46	1468	0.001
1468.62	1468.15	0.001
1468.78	1468.34	0
1468.93	1468.49	0.001
1469.09	1468.61	0.001
1469.25	1468.77	0
1469.41	1468.97	0.001
1469.57	1469.12	0.001
1469.73	1469.28	0.001
1469.89	1469.38	0.001
1470.05	1469.63	0.001
1470.21	1469.89	0.001
1470.36	1469.95	0.001
1470.52	1470.04	0.001
1470.68	1470.25	0.001
1470.84	1470.45	0.001
1471	1470.61	0.001
1471.16	1470.71	0.001
1471.32	1470.87	0.001
1471.47	1471.07	0.001
1471.63	1471.22	0.001
1471.79	1471.36	0
1471.95	1471.47	0.001
1472.11	1471.62	0.001
1472.26	1471.86	-0.003
1472.42	1472	-0
1472.58	1472.13	0.001
1472.74	1472.32	-0.003
1472.9	1472.55	0.001
1473.06	1472.7	0.001
1473.22	1472.84	0.001
1473.38	1472.97	0.001
1473.53	1473.13	0.001
1473.69	1473.31	0
1473.85	1473.45	0.001
1474.01	1473.6	0.001
1474.17	1473.75	0.001
1474.32	1473.93	0.001
1474.48	1474.07	0.001
1474.64	1474.2	0.001
1474.8	1474.41	0
1474.96	1474.52	0.001
1475.12	1474.72	0
1475.28	1474.89	0
1475.44	1475.01	0.001
1475.6	1475.16	0
1475.75	1475.33	0.003
1475.92	1475.55	0
1476.08	1475.66	0.001
1476.24	1475.79	0.001
1476.4	1475.99	0.001
1476.55	1476.21	0.001
1476.71	1476.33	0
1476.87	1476.49	0
1477.03	1476.62	0
1477.19	1476.83	0.001
1477.35	1476.96	0.001
1477.5	1477.14	0.001
1477.66	1477.22	0.001
1477.82	1477.36	0.001
1477.98	1477.55	0
1478.14	1477.72	0
1478.3	1477.85	0.001
1478.46	1478	0.001
1478.61	1478.14	0.001
1478.77	1478.34	0.001
1478.93	1478.54	-0.004
1479.09	1478.6	0.001
1479.25	1478.76	0.001
1479.41	1478.92	0
1479.57	1479.13	0.001
1479.73	1479.26	0
1479.88	1479.39	0.001
1480.04	1479.69	0.001
1480.2	1479.82	0.001
1480.36	1479.99	0
1480.52	1480.12	0.001
1480.68	1480.27	0
1480.84	1480.47	0.001
1481	1480.63	0
1481.15	1480.75	0.001
1481.31	1480.9	0.001
1481.47	1481.02	0.001
1481.63	1481.25	0
1481.79	1481.38	0.001
1481.94	1481.51	0
1482.1	1481.66	0.001
1482.26	1481.85	0.004
1482.42	1482.05	0
1482.58	1482.17	0.001
1482.74	1482.32	0.001
1482.9	1482.5	0
1483.06	1482.7	0.001
1483.22	1482.83	0.001
1483.38	1482.96	0.001
1483.54	1483.15	0.001
1483.7	1483.33	0.001
1483.86	1483.48	0
1484.02	1483.6	0.001
1484.18	1483.73	0.001
1484.34	1483.92	0
1484.5	1484.12	0.001
1484.65	1484.24	0
1484.81	1484.37	0
1484.97	1484.49	0.001
1485.13	1484.66	0.006
1485.29	1484.87	0.001
1485.45	1485.01	0.001
1485.6	1485.17	0.001
1485.76	1485.31	0.001
1485.92	1485.51	0.001
1486.08	1485.64	0.001
1486.24	1485.78	0.001
1486.4	1485.92	0.001
1486.56	1486.1	0.001
1486.72	1486.29	-0.002
1486.88	1486.43	0.001
1487.04	1486.55	0
1487.19	1486.79	0.001
1487.35	1486.97	0
1487.51	1487.12	0.001
1487.67	1487.29	0
1487.83	1487.39	0
1487.99	1487.57	0.001
1488.15	1487.76	0.001
1488.31	1487.87	0
1488.46	1487.99	0
1488.62	1488.17	0.001
1488.78	1488.38	0.001
1488.94	1488.48	0.001
1489.1	1488.65	0.001
1489.26	1488.81	0.001
1489.42	1489.04	0.001
1489.58	1489.19	0
1489.74	1489.32	0
1489.89	1489.42	0.001
1490.05	1489.64	0
